# E (eV)   ldos(E)   pdos(E)    pdos(E)    pdos(E)   
 -16.193  0.000E+00  0.000E+00  0.000E+00  0.000E+00
 -16.183  0.188E-01  0.167E-12  0.176E-01  0.124E-02
 -16.173  0.154E-01  0.138E-13  0.136E-01  0.184E-02
 -16.163  0.186E-01  0.220E-13  0.156E-01  0.303E-02
 -16.153  0.222E-01  0.277E-13  0.177E-01  0.443E-02
 -16.143  0.218E-01  0.245E-13  0.168E-01  0.505E-02
 -16.133  0.221E-01  0.225E-13  0.164E-01  0.572E-02
 -16.123  0.243E-01  0.215E-13  0.175E-01  0.686E-02
 -16.113  0.266E-01  0.204E-13  0.186E-01  0.807E-02
 -16.103  0.290E-01  0.192E-13  0.197E-01  0.934E-02
 -16.093  0.288E-01  0.167E-13  0.190E-01  0.973E-02
 -16.083  0.299E-01  0.167E-13  0.193E-01  0.106E-01
 -16.073  0.310E-01  0.165E-13  0.196E-01  0.113E-01
 -16.063  0.325E-01  0.160E-13  0.202E-01  0.123E-01
 -16.053  0.344E-01  0.156E-13  0.210E-01  0.134E-01
 -16.043  0.363E-01  0.153E-13  0.218E-01  0.146E-01
 -16.033  0.383E-01  0.150E-13  0.226E-01  0.157E-01
 -16.023  0.389E-01  0.135E-13  0.226E-01  0.163E-01
 -16.013  0.389E-01  0.125E-13  0.223E-01  0.166E-01
 -16.003  0.402E-01  0.120E-13  0.227E-01  0.175E-01
 -15.993  0.416E-01  0.117E-13  0.232E-01  0.184E-01
 -15.983  0.429E-01  0.114E-13  0.236E-01  0.193E-01
 -15.973  0.443E-01  0.112E-13  0.241E-01  0.202E-01
 -15.963  0.460E-01  0.110E-13  0.247E-01  0.213E-01
 -15.953  0.477E-01  0.109E-13  0.253E-01  0.223E-01
 -15.943  0.494E-01  0.107E-13  0.260E-01  0.234E-01
 -15.933  0.497E-01  0.102E-13  0.259E-01  0.238E-01
 -15.923  0.505E-01  0.101E-13  0.260E-01  0.244E-01
 -15.913  0.512E-01  0.963E-14  0.262E-01  0.250E-01
 -15.903  0.523E-01  0.897E-14  0.265E-01  0.258E-01
 -15.893  0.537E-01  0.829E-14  0.270E-01  0.267E-01
 -15.883  0.551E-01  0.759E-14  0.274E-01  0.276E-01
 -15.873  0.564E-01  0.686E-14  0.279E-01  0.285E-01
 -15.863  0.578E-01  0.609E-14  0.283E-01  0.294E-01
 -15.853  0.592E-01  0.531E-14  0.288E-01  0.304E-01
 -15.843  0.608E-01  0.453E-14  0.294E-01  0.314E-01
 -15.833  0.623E-01  0.375E-14  0.299E-01  0.325E-01
 -15.823  0.628E-01  0.306E-14  0.299E-01  0.329E-01
 -15.813  0.633E-01  0.275E-14  0.300E-01  0.334E-01
 -15.803  0.644E-01  0.260E-14  0.303E-01  0.342E-01
 -15.793  0.655E-01  0.254E-14  0.306E-01  0.349E-01
 -15.783  0.666E-01  0.258E-14  0.309E-01  0.357E-01
 -15.773  0.679E-01  0.268E-14  0.313E-01  0.366E-01
 -15.763  0.693E-01  0.280E-14  0.318E-01  0.376E-01
 -15.753  0.707E-01  0.291E-14  0.322E-01  0.385E-01
 -15.743  0.722E-01  0.303E-14  0.327E-01  0.395E-01
 -15.733  0.736E-01  0.314E-14  0.331E-01  0.405E-01
 -15.723  0.750E-01  0.326E-14  0.336E-01  0.415E-01
 -15.713  0.766E-01  0.338E-14  0.341E-01  0.425E-01
 -15.703  0.781E-01  0.350E-14  0.346E-01  0.436E-01
 -15.693  0.784E-01  0.349E-14  0.345E-01  0.439E-01
 -15.683  0.794E-01  0.351E-14  0.348E-01  0.446E-01
 -15.673  0.807E-01  0.353E-14  0.351E-01  0.456E-01
 -15.663  0.821E-01  0.356E-14  0.356E-01  0.465E-01
 -15.653  0.835E-01  0.358E-14  0.360E-01  0.475E-01
 -15.643  0.849E-01  0.360E-14  0.364E-01  0.485E-01
 -15.633  0.865E-01  0.363E-14  0.369E-01  0.496E-01
 -15.623  0.882E-01  0.365E-14  0.375E-01  0.508E-01
 -15.613  0.900E-01  0.367E-14  0.380E-01  0.520E-01
 -15.603  0.918E-01  0.369E-14  0.386E-01  0.532E-01
 -15.593  0.936E-01  0.371E-14  0.392E-01  0.544E-01
 -15.583  0.954E-01  0.373E-14  0.397E-01  0.556E-01
 -15.573  0.972E-01  0.374E-14  0.403E-01  0.569E-01
 -15.563  0.988E-01  0.370E-14  0.408E-01  0.580E-01
 -15.553  0.100E+00  0.365E-14  0.412E-01  0.592E-01
 -15.543  0.102E+00  0.379E-14  0.419E-01  0.605E-01
 -15.533  0.104E+00  0.412E-14  0.425E-01  0.620E-01
 -15.523  0.107E+00  0.465E-14  0.434E-01  0.637E-01
 -15.513  0.110E+00  0.538E-14  0.443E-01  0.655E-01
 -15.503  0.113E+00  0.629E-14  0.452E-01  0.674E-01
 -15.493  0.115E+00  0.739E-14  0.461E-01  0.693E-01
 -15.483  0.119E+00  0.864E-14  0.474E-01  0.718E-01
 -15.473  0.124E+00  0.993E-14  0.489E-01  0.746E-01
 -15.463  0.128E+00  0.113E-13  0.504E-01  0.775E-01
 -15.453  0.132E+00  0.126E-13  0.519E-01  0.804E-01
 -15.443  0.137E+00  0.141E-13  0.535E-01  0.834E-01
 -15.433  0.144E+00  0.155E-13  0.558E-01  0.878E-01
 -15.423  0.152E+00  0.170E-13  0.589E-01  0.933E-01
 -15.413  0.161E+00  0.188E-13  0.620E-01  0.989E-01
 -15.403  0.173E+00  0.217E-13  0.662E-01  0.106E+00
 -15.393  0.191E+00  0.259E-13  0.730E-01  0.118E+00
 -15.383  0.668E+00  0.430E-13  0.253E+00  0.415E+00
 -15.373  0.179E+00  0.359E-13  0.680E-01  0.111E+00
 -15.363  0.163E+00  0.383E-13  0.617E-01  0.102E+00
 -15.353  0.147E+00  0.384E-13  0.555E-01  0.918E-01
 -15.343  0.131E+00  0.363E-13  0.491E-01  0.817E-01
 -15.333  0.114E+00  0.319E-13  0.428E-01  0.714E-01
 -15.323  0.115E+00  0.325E-13  0.429E-01  0.720E-01
 -15.313  0.117E+00  0.329E-13  0.435E-01  0.735E-01
 -15.303  0.119E+00  0.326E-13  0.442E-01  0.750E-01
 -15.293  0.860E-01  0.244E-13  0.319E-01  0.541E-01
 -15.283  0.888E-01  0.269E-13  0.328E-01  0.560E-01
 -15.273  0.915E-01  0.302E-13  0.337E-01  0.578E-01
 -15.263  0.885E-01  0.313E-13  0.325E-01  0.561E-01
 -15.253  0.836E-01  0.309E-13  0.306E-01  0.530E-01
 -15.243  0.786E-01  0.300E-13  0.287E-01  0.500E-01
 -15.233  0.736E-01  0.288E-13  0.268E-01  0.468E-01
 -15.223  0.686E-01  0.272E-13  0.249E-01  0.437E-01
 -15.213  0.634E-01  0.251E-13  0.229E-01  0.405E-01
 -15.203  0.583E-01  0.226E-13  0.210E-01  0.373E-01
 -15.193  0.541E-01  0.203E-13  0.195E-01  0.346E-01
 -15.183  0.534E-01  0.195E-13  0.192E-01  0.343E-01
 -15.173  0.528E-01  0.187E-13  0.189E-01  0.339E-01
 -15.163  0.521E-01  0.177E-13  0.186E-01  0.335E-01
 -15.153  0.513E-01  0.166E-13  0.182E-01  0.331E-01
 -15.143  0.506E-01  0.153E-13  0.179E-01  0.327E-01
 -15.133  0.498E-01  0.140E-13  0.176E-01  0.322E-01
 -15.123  0.302E-01  0.784E-14  0.107E-01  0.196E-01
 -15.113  0.284E-01  0.118E-13  0.998E-02  0.184E-01
 -15.103  0.265E-01  0.152E-13  0.929E-02  0.172E-01
 -15.093  0.246E-01  0.179E-13  0.861E-02  0.160E-01
 -15.083  0.227E-01  0.201E-13  0.792E-02  0.148E-01
 -15.073  0.208E-01  0.216E-13  0.723E-02  0.135E-01
 -15.063  0.188E-01  0.224E-13  0.654E-02  0.123E-01
 -15.053  0.169E-01  0.227E-13  0.585E-02  0.110E-01
 -15.043  0.149E-01  0.223E-13  0.516E-02  0.977E-02
 -15.033  0.130E-01  0.213E-13  0.447E-02  0.849E-02
 -15.023  0.110E-01  0.197E-13  0.377E-02  0.720E-02
 -15.013  0.898E-02  0.174E-13  0.308E-02  0.590E-02
 -15.003  0.697E-02  0.146E-13  0.239E-02  0.459E-02
 -14.993  0.495E-02  0.111E-13  0.169E-02  0.326E-02
 -14.983  0.292E-02  0.696E-14  0.995E-03  0.193E-02
 -14.973  0.877E-03  0.222E-14  0.298E-03  0.579E-03
 -14.963  0.114E-02  0.174E-14  0.386E-03  0.752E-03
 -14.953  0.315E-02  0.456E-14  0.107E-02  0.208E-02
 -14.943  0.517E-02  0.705E-14  0.174E-02  0.342E-02
 -14.933  0.720E-02  0.922E-14  0.242E-02  0.477E-02
 -14.923  0.923E-02  0.111E-13  0.311E-02  0.613E-02
 -14.913  0.113E-01  0.126E-13  0.379E-02  0.749E-02
 -14.903  0.133E-01  0.138E-13  0.447E-02  0.886E-02
 -14.893  0.154E-01  0.146E-13  0.515E-02  0.102E-01
 -14.883  0.175E-01  0.152E-13  0.583E-02  0.116E-01
 -14.873  0.195E-01  0.154E-13  0.651E-02  0.130E-01
 -14.863  0.216E-01  0.153E-13  0.719E-02  0.144E-01
 -14.853  0.237E-01  0.149E-13  0.787E-02  0.158E-01
 -14.843  0.258E-01  0.141E-13  0.856E-02  0.173E-01
 -14.833  0.279E-01  0.130E-13  0.924E-02  0.187E-01
 -14.823  0.301E-01  0.116E-13  0.992E-02  0.201E-01
 -14.813  0.322E-01  0.989E-14  0.106E-01  0.216E-01
 -14.803  0.545E-01  0.151E-13  0.180E-01  0.366E-01
 -14.793  0.547E-01  0.138E-13  0.180E-01  0.367E-01
 -14.783  0.549E-01  0.128E-13  0.181E-01  0.368E-01
 -14.773  0.551E-01  0.119E-13  0.181E-01  0.370E-01
 -14.763  0.553E-01  0.111E-13  0.182E-01  0.371E-01
 -14.753  0.556E-01  0.105E-13  0.182E-01  0.373E-01
 -14.743  0.576E-01  0.101E-13  0.189E-01  0.387E-01
 -14.733  0.640E-01  0.102E-13  0.210E-01  0.430E-01
 -14.723  0.704E-01  0.104E-13  0.231E-01  0.473E-01
 -14.713  0.768E-01  0.107E-13  0.252E-01  0.516E-01
 -14.703  0.832E-01  0.112E-13  0.273E-01  0.559E-01
 -14.693  0.895E-01  0.118E-13  0.294E-01  0.602E-01
 -14.683  0.959E-01  0.125E-13  0.314E-01  0.645E-01
 -14.673  0.102E+00  0.133E-13  0.335E-01  0.687E-01
 -14.663  0.109E+00  0.143E-13  0.356E-01  0.730E-01
 -14.653  0.904E-01  0.123E-13  0.297E-01  0.607E-01
 -14.643  0.147E+00  0.184E-13  0.492E-01  0.982E-01
 -14.633  0.116E+00  0.148E-13  0.384E-01  0.772E-01
 -14.623  0.129E+00  0.163E-13  0.431E-01  0.862E-01
 -14.613  0.150E+00  0.180E-13  0.501E-01  0.994E-01
 -14.603  0.170E+00  0.194E-13  0.571E-01  0.113E+00
 -14.593  0.301E+00  0.224E-13  0.104E+00  0.197E+00
 -14.583  0.204E+00  0.212E-13  0.692E-01  0.135E+00
 -14.573  0.192E+00  0.214E-13  0.646E-01  0.127E+00
 -14.563  0.179E+00  0.211E-13  0.600E-01  0.119E+00
 -14.553  0.165E+00  0.201E-13  0.553E-01  0.110E+00
 -14.543  0.155E+00  0.191E-13  0.515E-01  0.103E+00
 -14.533  0.148E+00  0.186E-13  0.491E-01  0.992E-01
 -14.523  0.142E+00  0.181E-13  0.467E-01  0.949E-01
 -14.513  0.136E+00  0.174E-13  0.447E-01  0.912E-01
 -14.503  0.132E+00  0.166E-13  0.432E-01  0.886E-01
 -14.493  0.128E+00  0.158E-13  0.419E-01  0.863E-01
 -14.483  0.125E+00  0.150E-13  0.406E-01  0.841E-01
 -14.473  0.121E+00  0.142E-13  0.394E-01  0.818E-01
 -14.463  0.117E+00  0.133E-13  0.379E-01  0.790E-01
 -14.453  0.115E+00  0.128E-13  0.372E-01  0.778E-01
 -14.443  0.113E+00  0.123E-13  0.364E-01  0.766E-01
 -14.433  0.111E+00  0.117E-13  0.357E-01  0.754E-01
 -14.423  0.110E+00  0.113E-13  0.352E-01  0.747E-01
 -14.413  0.109E+00  0.108E-13  0.347E-01  0.741E-01
 -14.403  0.108E+00  0.104E-13  0.343E-01  0.734E-01
 -14.393  0.106E+00  0.101E-13  0.338E-01  0.727E-01
 -14.383  0.105E+00  0.979E-14  0.333E-01  0.720E-01
 -14.373  0.104E+00  0.953E-14  0.329E-01  0.712E-01
 -14.363  0.103E+00  0.931E-14  0.324E-01  0.705E-01
 -14.353  0.102E+00  0.914E-14  0.319E-01  0.697E-01
 -14.343  0.100E+00  0.900E-14  0.315E-01  0.690E-01
 -14.333  0.993E-01  0.887E-14  0.310E-01  0.683E-01
 -14.323  0.981E-01  0.873E-14  0.306E-01  0.675E-01
 -14.313  0.970E-01  0.859E-14  0.302E-01  0.668E-01
 -14.303  0.959E-01  0.844E-14  0.297E-01  0.661E-01
 -14.293  0.948E-01  0.829E-14  0.293E-01  0.654E-01
 -14.283  0.936E-01  0.811E-14  0.289E-01  0.647E-01
 -14.273  0.916E-01  0.796E-14  0.282E-01  0.634E-01
 -14.263  0.896E-01  0.810E-14  0.275E-01  0.620E-01
 -14.253  0.884E-01  0.862E-14  0.271E-01  0.612E-01
 -14.243  0.879E-01  0.927E-14  0.269E-01  0.610E-01
 -14.233  0.874E-01  0.992E-14  0.267E-01  0.607E-01
 -14.223  0.869E-01  0.106E-13  0.265E-01  0.604E-01
 -14.213  0.864E-01  0.112E-13  0.262E-01  0.601E-01
 -14.203  0.858E-01  0.119E-13  0.260E-01  0.598E-01
 -14.193  0.853E-01  0.125E-13  0.258E-01  0.595E-01
 -14.183  0.848E-01  0.132E-13  0.256E-01  0.592E-01
 -14.173  0.843E-01  0.139E-13  0.254E-01  0.589E-01
 -14.163  0.837E-01  0.145E-13  0.251E-01  0.586E-01
 -14.153  0.832E-01  0.152E-13  0.249E-01  0.583E-01
 -14.143  0.826E-01  0.159E-13  0.247E-01  0.579E-01
 -14.133  0.821E-01  0.167E-13  0.245E-01  0.576E-01
 -14.123  0.815E-01  0.174E-13  0.242E-01  0.573E-01
 -14.113  0.810E-01  0.181E-13  0.240E-01  0.569E-01
 -14.103  0.804E-01  0.189E-13  0.238E-01  0.566E-01
 -14.093  0.797E-01  0.196E-13  0.235E-01  0.561E-01
 -14.083  0.789E-01  0.202E-13  0.232E-01  0.556E-01
 -14.073  0.780E-01  0.206E-13  0.229E-01  0.551E-01
 -14.063  0.772E-01  0.209E-13  0.227E-01  0.545E-01
 -14.053  0.763E-01  0.210E-13  0.224E-01  0.540E-01
 -14.043  0.755E-01  0.209E-13  0.221E-01  0.534E-01
 -14.033  0.731E-01  0.191E-13  0.213E-01  0.518E-01
 -14.023  0.728E-01  0.186E-13  0.212E-01  0.516E-01
 -14.013  0.725E-01  0.181E-13  0.211E-01  0.515E-01
 -14.003  0.722E-01  0.177E-13  0.209E-01  0.513E-01
 -13.993  0.719E-01  0.172E-13  0.208E-01  0.511E-01
 -13.983  0.716E-01  0.168E-13  0.206E-01  0.509E-01
 -13.973  0.713E-01  0.163E-13  0.205E-01  0.508E-01
 -13.963  0.709E-01  0.158E-13  0.204E-01  0.506E-01
 -13.953  0.706E-01  0.154E-13  0.202E-01  0.504E-01
 -13.943  0.703E-01  0.149E-13  0.201E-01  0.502E-01
 -13.933  0.699E-01  0.145E-13  0.199E-01  0.500E-01
 -13.923  0.696E-01  0.140E-13  0.198E-01  0.498E-01
 -13.913  0.692E-01  0.135E-13  0.196E-01  0.496E-01
 -13.903  0.687E-01  0.131E-13  0.195E-01  0.493E-01
 -13.893  0.683E-01  0.127E-13  0.193E-01  0.490E-01
 -13.883  0.678E-01  0.122E-13  0.191E-01  0.487E-01
 -13.873  0.673E-01  0.118E-13  0.189E-01  0.484E-01
 -13.863  0.669E-01  0.114E-13  0.188E-01  0.481E-01
 -13.853  0.664E-01  0.110E-13  0.186E-01  0.478E-01
 -13.843  0.659E-01  0.106E-13  0.184E-01  0.475E-01
 -13.833  0.654E-01  0.102E-13  0.182E-01  0.472E-01
 -13.823  0.649E-01  0.984E-14  0.181E-01  0.469E-01
 -13.813  0.639E-01  0.949E-14  0.177E-01  0.462E-01
 -13.803  0.628E-01  0.936E-14  0.174E-01  0.454E-01
 -13.793  0.617E-01  0.945E-14  0.171E-01  0.446E-01
 -13.783  0.607E-01  0.979E-14  0.168E-01  0.440E-01
 -13.773  0.605E-01  0.103E-13  0.167E-01  0.438E-01
 -13.763  0.603E-01  0.109E-13  0.166E-01  0.437E-01
 -13.753  0.601E-01  0.114E-13  0.165E-01  0.436E-01
 -13.743  0.598E-01  0.120E-13  0.164E-01  0.434E-01
 -13.733  0.595E-01  0.125E-13  0.162E-01  0.433E-01
 -13.723  0.592E-01  0.131E-13  0.161E-01  0.431E-01
 -13.713  0.589E-01  0.136E-13  0.160E-01  0.429E-01
 -13.703  0.586E-01  0.141E-13  0.159E-01  0.427E-01
 -13.693  0.583E-01  0.146E-13  0.158E-01  0.426E-01
 -13.683  0.580E-01  0.151E-13  0.157E-01  0.424E-01
 -13.673  0.577E-01  0.156E-13  0.155E-01  0.422E-01
 -13.663  0.574E-01  0.160E-13  0.154E-01  0.420E-01
 -13.653  0.571E-01  0.165E-13  0.153E-01  0.418E-01
 -13.643  0.568E-01  0.169E-13  0.152E-01  0.416E-01
 -13.633  0.565E-01  0.174E-13  0.151E-01  0.414E-01
 -13.623  0.562E-01  0.178E-13  0.150E-01  0.413E-01
 -13.613  0.559E-01  0.182E-13  0.148E-01  0.410E-01
 -13.603  0.553E-01  0.186E-13  0.147E-01  0.407E-01
 -13.593  0.548E-01  0.189E-13  0.145E-01  0.403E-01
 -13.583  0.543E-01  0.193E-13  0.143E-01  0.399E-01
 -13.573  0.537E-01  0.196E-13  0.142E-01  0.396E-01
 -13.563  0.532E-01  0.200E-13  0.140E-01  0.392E-01
 -13.553  0.527E-01  0.204E-13  0.138E-01  0.389E-01
 -13.543  0.521E-01  0.207E-13  0.136E-01  0.385E-01
 -13.533  0.500E-01  0.205E-13  0.131E-01  0.369E-01
 -13.523  0.498E-01  0.220E-13  0.130E-01  0.368E-01
 -13.513  0.496E-01  0.235E-13  0.129E-01  0.367E-01
 -13.503  0.493E-01  0.250E-13  0.128E-01  0.366E-01
 -13.493  0.491E-01  0.265E-13  0.127E-01  0.364E-01
 -13.483  0.489E-01  0.280E-13  0.126E-01  0.363E-01
 -13.473  0.487E-01  0.296E-13  0.125E-01  0.362E-01
 -13.463  0.485E-01  0.311E-13  0.125E-01  0.360E-01
 -13.453  0.483E-01  0.327E-13  0.124E-01  0.359E-01
 -13.443  0.480E-01  0.343E-13  0.123E-01  0.357E-01
 -13.433  0.478E-01  0.358E-13  0.122E-01  0.356E-01
 -13.423  0.475E-01  0.374E-13  0.121E-01  0.354E-01
 -13.413  0.472E-01  0.390E-13  0.120E-01  0.352E-01
 -13.403  0.469E-01  0.406E-13  0.119E-01  0.350E-01
 -13.393  0.466E-01  0.423E-13  0.118E-01  0.348E-01
 -13.383  0.463E-01  0.439E-13  0.117E-01  0.346E-01
 -13.373  0.460E-01  0.456E-13  0.116E-01  0.344E-01
 -13.363  0.456E-01  0.473E-13  0.115E-01  0.342E-01
 -13.353  0.453E-01  0.491E-13  0.114E-01  0.340E-01
 -13.343  0.450E-01  0.508E-13  0.112E-01  0.338E-01
 -13.333  0.447E-01  0.526E-13  0.111E-01  0.336E-01
 -13.323  0.444E-01  0.545E-13  0.110E-01  0.333E-01
 -13.313  0.441E-01  0.563E-13  0.109E-01  0.331E-01
 -13.303  0.437E-01  0.582E-13  0.108E-01  0.329E-01
 -13.293  0.432E-01  0.600E-13  0.107E-01  0.325E-01
 -13.283  0.424E-01  0.621E-13  0.105E-01  0.320E-01
 -13.273  0.416E-01  0.649E-13  0.102E-01  0.314E-01
 -13.263  0.408E-01  0.684E-13  0.100E-01  0.308E-01
 -13.253  0.401E-01  0.725E-13  0.980E-02  0.303E-01
 -13.243  0.394E-01  0.776E-13  0.961E-02  0.298E-01
 -13.233  0.392E-01  0.844E-13  0.953E-02  0.296E-01
 -13.223  0.390E-01  0.913E-13  0.946E-02  0.295E-01
 -13.213  0.387E-01  0.983E-13  0.938E-02  0.294E-01
 -13.203  0.385E-01  0.105E-12  0.930E-02  0.292E-01
 -13.193  0.383E-01  0.113E-12  0.923E-02  0.291E-01
 -13.183  0.381E-01  0.120E-12  0.915E-02  0.289E-01
 -13.173  0.379E-01  0.127E-12  0.907E-02  0.288E-01
 -13.163  0.376E-01  0.135E-12  0.900E-02  0.286E-01
 -13.153  0.374E-01  0.142E-12  0.892E-02  0.285E-01
 -13.143  0.372E-01  0.150E-12  0.885E-02  0.283E-01
 -13.133  0.370E-01  0.157E-12  0.877E-02  0.282E-01
 -13.123  0.367E-01  0.165E-12  0.870E-02  0.281E-01
 -13.113  0.365E-01  0.173E-12  0.862E-02  0.279E-01
 -13.103  0.363E-01  0.181E-12  0.855E-02  0.278E-01
 -13.093  0.360E-01  0.189E-12  0.846E-02  0.276E-01
 -13.083  0.356E-01  0.196E-12  0.835E-02  0.273E-01
 -13.073  0.353E-01  0.202E-12  0.824E-02  0.270E-01
 -13.063  0.349E-01  0.208E-12  0.814E-02  0.268E-01
 -13.053  0.346E-01  0.213E-12  0.803E-02  0.265E-01
 -13.043  0.342E-01  0.217E-12  0.792E-02  0.263E-01
 -13.033  0.338E-01  0.220E-12  0.782E-02  0.260E-01
 -13.023  0.335E-01  0.223E-12  0.771E-02  0.257E-01
 -13.013  0.331E-01  0.225E-12  0.761E-02  0.255E-01
 -13.003  0.327E-01  0.226E-12  0.750E-02  0.252E-01
 -12.993  0.323E-01  0.226E-12  0.740E-02  0.249E-01
 -12.983  0.320E-01  0.226E-12  0.729E-02  0.247E-01
 -12.973  0.316E-01  0.225E-12  0.719E-02  0.244E-01
 -12.963  0.296E-01  0.202E-12  0.672E-02  0.229E-01
 -12.953  0.294E-01  0.197E-12  0.665E-02  0.228E-01
 -12.943  0.292E-01  0.191E-12  0.658E-02  0.226E-01
 -12.933  0.295E-01  0.188E-12  0.703E-02  0.225E-01
 -12.923  0.528E-01  0.258E-12  0.302E-01  0.226E-01
 -12.913  0.765E-01  0.281E-12  0.533E-01  0.232E-01
 -12.903  0.101E+00  0.255E-12  0.764E-01  0.243E-01
 -12.893  0.704E-01  0.204E-12  0.468E-01  0.236E-01
 -12.883  0.726E-01  0.199E-12  0.486E-01  0.240E-01
 -12.873  0.748E-01  0.193E-12  0.504E-01  0.244E-01
 -12.863  0.771E-01  0.187E-12  0.522E-01  0.248E-01
 -12.853  0.794E-01  0.180E-12  0.540E-01  0.253E-01
 -12.843  0.816E-01  0.173E-12  0.557E-01  0.259E-01
 -12.833  0.838E-01  0.166E-12  0.574E-01  0.264E-01
 -12.823  0.826E-01  0.155E-12  0.560E-01  0.266E-01
 -12.813  0.803E-01  0.143E-12  0.536E-01  0.267E-01
 -12.803  0.800E-01  0.134E-12  0.531E-01  0.269E-01
 -12.793  0.810E-01  0.125E-12  0.537E-01  0.273E-01
 -12.783  0.821E-01  0.116E-12  0.543E-01  0.277E-01
 -12.773  0.831E-01  0.108E-12  0.549E-01  0.282E-01
 -12.763  0.841E-01  0.987E-13  0.555E-01  0.286E-01
 -12.753  0.852E-01  0.899E-13  0.561E-01  0.291E-01
 -12.743  0.862E-01  0.818E-13  0.568E-01  0.294E-01
 -12.733  0.874E-01  0.753E-13  0.576E-01  0.297E-01
 -12.723  0.885E-01  0.694E-13  0.585E-01  0.300E-01
 -12.713  0.897E-01  0.642E-13  0.594E-01  0.304E-01
 -12.703  0.910E-01  0.595E-13  0.602E-01  0.307E-01
 -12.693  0.898E-01  0.557E-13  0.592E-01  0.306E-01
 -12.683  0.900E-01  0.535E-13  0.592E-01  0.308E-01
 -12.673  0.902E-01  0.525E-13  0.593E-01  0.309E-01
 -12.663  0.906E-01  0.526E-13  0.595E-01  0.311E-01
 -12.653  0.913E-01  0.535E-13  0.598E-01  0.314E-01
 -12.643  0.923E-01  0.553E-13  0.603E-01  0.319E-01
 -12.633  0.938E-01  0.574E-13  0.612E-01  0.326E-01
 -12.623  0.953E-01  0.597E-13  0.620E-01  0.332E-01
 -12.613  0.968E-01  0.621E-13  0.629E-01  0.339E-01
 -12.603  0.983E-01  0.646E-13  0.637E-01  0.346E-01
 -12.593  0.996E-01  0.672E-13  0.643E-01  0.353E-01
 -12.583  0.101E+00  0.696E-13  0.650E-01  0.359E-01
 -12.573  0.102E+00  0.721E-13  0.656E-01  0.366E-01
 -12.563  0.104E+00  0.745E-13  0.663E-01  0.373E-01
 -12.553  0.105E+00  0.768E-13  0.669E-01  0.380E-01
 -12.543  0.108E+00  0.798E-13  0.689E-01  0.392E-01
 -12.533  0.111E+00  0.813E-13  0.703E-01  0.402E-01
 -12.523  0.113E+00  0.815E-13  0.714E-01  0.412E-01
 -12.513  0.115E+00  0.809E-13  0.724E-01  0.421E-01
 -12.503  0.119E+00  0.806E-13  0.753E-01  0.437E-01
 -12.493  0.121E+00  0.771E-13  0.765E-01  0.448E-01
 -12.483  0.123E+00  0.730E-13  0.777E-01  0.458E-01
 -12.473  0.126E+00  0.685E-13  0.789E-01  0.469E-01
 -12.463  0.128E+00  0.634E-13  0.800E-01  0.480E-01
 -12.453  0.130E+00  0.578E-13  0.812E-01  0.491E-01
 -12.443  0.133E+00  0.517E-13  0.824E-01  0.502E-01
 -12.433  0.135E+00  0.451E-13  0.833E-01  0.512E-01
 -12.423  0.137E+00  0.386E-13  0.843E-01  0.523E-01
 -12.413  0.139E+00  0.319E-13  0.852E-01  0.534E-01
 -12.403  0.164E+00  0.259E-13  0.101E+00  0.626E-01
 -12.393  0.181E+00  0.224E-13  0.113E+00  0.679E-01
 -12.383  0.198E+00  0.243E-13  0.123E+00  0.742E-01
 -12.373  0.210E+00  0.270E-13  0.131E+00  0.792E-01
 -12.363  0.222E+00  0.305E-13  0.138E+00  0.843E-01
 -12.353  0.234E+00  0.344E-13  0.145E+00  0.892E-01
 -12.343  0.215E+00  0.377E-13  0.132E+00  0.830E-01
 -12.333  0.186E+00  0.411E-13  0.113E+00  0.729E-01
 -12.323  0.173E+00  0.441E-13  0.105E+00  0.686E-01
 -12.313  0.162E+00  0.466E-13  0.970E-01  0.646E-01
 -12.303  0.156E+00  0.494E-13  0.933E-01  0.629E-01
 -12.293  0.150E+00  0.524E-13  0.889E-01  0.608E-01
 -12.283  0.143E+00  0.557E-13  0.843E-01  0.585E-01
 -12.273  0.142E+00  0.622E-13  0.834E-01  0.583E-01
 -12.263  0.139E+00  0.707E-13  0.815E-01  0.575E-01
 -12.253  0.136E+00  0.784E-13  0.797E-01  0.567E-01
 -12.243  0.134E+00  0.852E-13  0.778E-01  0.559E-01
 -12.233  0.131E+00  0.913E-13  0.762E-01  0.552E-01
 -12.223  0.129E+00  0.953E-13  0.747E-01  0.545E-01
 -12.213  0.125E+00  0.980E-13  0.718E-01  0.529E-01
 -12.203  0.120E+00  0.100E-12  0.690E-01  0.513E-01
 -12.193  0.116E+00  0.102E-12  0.661E-01  0.495E-01
 -12.183  0.111E+00  0.103E-12  0.632E-01  0.477E-01
 -12.173  0.114E+00  0.120E-12  0.648E-01  0.489E-01
 -12.163  0.125E+00  0.135E-12  0.714E-01  0.537E-01
 -12.153  0.120E+00  0.143E-12  0.684E-01  0.518E-01
 -12.143  0.115E+00  0.153E-12  0.654E-01  0.497E-01
 -12.133  0.110E+00  0.162E-12  0.623E-01  0.476E-01
 -12.123  0.105E+00  0.173E-12  0.592E-01  0.453E-01
 -12.113  0.991E-01  0.184E-12  0.561E-01  0.430E-01
 -12.103  0.103E+00  0.200E-12  0.580E-01  0.445E-01
 -12.093  0.118E+00  0.224E-12  0.668E-01  0.511E-01
 -12.083  0.111E+00  0.176E-12  0.628E-01  0.480E-01
 -12.073  0.104E+00  0.131E-12  0.587E-01  0.452E-01
 -12.063  0.970E-01  0.873E-13  0.546E-01  0.424E-01
 -12.053  0.913E-01  0.428E-13  0.512E-01  0.401E-01
 -12.043  0.119E+00  0.324E-13  0.666E-01  0.526E-01
 -12.033  0.105E+00  0.230E-13  0.586E-01  0.467E-01
 -12.023  0.912E-01  0.115E-13  0.506E-01  0.406E-01
 -12.013  0.140E+00  0.190E-13  0.776E-01  0.628E-01
 -12.003  0.136E-01  0.787E-14  0.749E-02  0.610E-02
 -11.993  0.228E-03  0.870E-16  0.122E-03  0.106E-03
 -11.983  0.491E-03  0.185E-15  0.256E-03  0.235E-03
 -11.973  0.761E-03  0.282E-15  0.384E-03  0.377E-03
 -11.963  0.104E-02  0.380E-15  0.508E-03  0.529E-03
 -11.953  0.132E-02  0.477E-15  0.628E-03  0.694E-03
 -11.943  0.161E-02  0.574E-15  0.743E-03  0.869E-03
 -11.933  0.191E-02  0.671E-15  0.854E-03  0.106E-02
 -11.923  0.221E-02  0.768E-15  0.960E-03  0.126E-02
 -11.913  0.253E-02  0.865E-15  0.106E-02  0.147E-02
 -11.903  0.285E-02  0.961E-15  0.116E-02  0.169E-02
 -11.893  0.317E-02  0.106E-14  0.125E-02  0.192E-02
 -11.883  0.350E-02  0.115E-14  0.134E-02  0.216E-02
 -11.873  0.384E-02  0.125E-14  0.142E-02  0.242E-02
 -11.863  0.419E-02  0.135E-14  0.150E-02  0.269E-02
 -11.853  0.454E-02  0.144E-14  0.157E-02  0.297E-02
 -11.843  0.490E-02  0.154E-14  0.164E-02  0.326E-02
 -11.833  0.527E-02  0.163E-14  0.171E-02  0.356E-02
 -11.823  0.564E-02  0.173E-14  0.177E-02  0.387E-02
 -11.813  0.603E-02  0.182E-14  0.183E-02  0.420E-02
 -11.803  0.641E-02  0.192E-14  0.188E-02  0.454E-02
 -11.793  0.681E-02  0.202E-14  0.192E-02  0.488E-02
 -11.783  0.721E-02  0.211E-14  0.197E-02  0.524E-02
 -11.773  0.762E-02  0.221E-14  0.201E-02  0.561E-02
 -11.763  0.804E-02  0.230E-14  0.204E-02  0.600E-02
 -11.753  0.846E-02  0.239E-14  0.207E-02  0.639E-02
 -11.743  0.889E-02  0.249E-14  0.209E-02  0.680E-02
 -11.733  0.933E-02  0.258E-14  0.211E-02  0.721E-02
 -11.723  0.977E-02  0.268E-14  0.213E-02  0.764E-02
 -11.713  0.102E-01  0.277E-14  0.214E-02  0.808E-02
 -11.703  0.107E-01  0.287E-14  0.214E-02  0.853E-02
 -11.693  0.142E-01  0.439E-14  0.276E-02  0.115E-01
 -11.683  0.145E-01  0.805E-14  0.280E-02  0.117E-01
 -11.673  0.148E-01  0.116E-13  0.284E-02  0.120E-01
 -11.663  0.151E-01  0.151E-13  0.288E-02  0.123E-01
 -11.653  0.155E-01  0.185E-13  0.292E-02  0.125E-01
 -11.643  0.158E-01  0.219E-13  0.296E-02  0.128E-01
 -11.633  0.161E-01  0.252E-13  0.300E-02  0.131E-01
 -11.623  0.164E-01  0.283E-13  0.304E-02  0.133E-01
 -11.613  0.167E-01  0.315E-13  0.308E-02  0.136E-01
 -11.603  0.170E-01  0.345E-13  0.311E-02  0.139E-01
 -11.593  0.173E-01  0.374E-13  0.315E-02  0.142E-01
 -11.583  0.176E-01  0.403E-13  0.318E-02  0.144E-01
 -11.573  0.179E-01  0.431E-13  0.322E-02  0.147E-01
 -11.563  0.182E-01  0.459E-13  0.325E-02  0.150E-01
 -11.553  0.186E-01  0.485E-13  0.329E-02  0.153E-01
 -11.543  0.189E-01  0.511E-13  0.332E-02  0.156E-01
 -11.533  0.192E-01  0.536E-13  0.335E-02  0.158E-01
 -11.523  0.195E-01  0.560E-13  0.339E-02  0.161E-01
 -11.513  0.198E-01  0.583E-13  0.342E-02  0.164E-01
 -11.503  0.201E-01  0.606E-13  0.345E-02  0.167E-01
 -11.493  0.204E-01  0.628E-13  0.348E-02  0.170E-01
 -11.483  0.207E-01  0.649E-13  0.351E-02  0.172E-01
 -11.473  0.211E-01  0.669E-13  0.354E-02  0.175E-01
 -11.463  0.214E-01  0.688E-13  0.356E-02  0.178E-01
 -11.453  0.218E-01  0.714E-13  0.361E-02  0.182E-01
 -11.443  0.227E-01  0.766E-13  0.374E-02  0.190E-01
 -11.433  0.237E-01  0.806E-13  0.387E-02  0.198E-01
 -11.423  0.246E-01  0.835E-13  0.400E-02  0.206E-01
 -11.413  0.256E-01  0.853E-13  0.413E-02  0.215E-01
 -11.403  0.265E-01  0.859E-13  0.426E-02  0.223E-01
 -11.393  0.275E-01  0.855E-13  0.438E-02  0.231E-01
 -11.383  0.284E-01  0.839E-13  0.451E-02  0.239E-01
 -11.373  0.292E-01  0.813E-13  0.460E-02  0.246E-01
 -11.363  0.297E-01  0.788E-13  0.466E-02  0.250E-01
 -11.353  0.302E-01  0.766E-13  0.472E-02  0.255E-01
 -11.343  0.307E-01  0.747E-13  0.477E-02  0.259E-01
 -11.333  0.312E-01  0.731E-13  0.483E-02  0.264E-01
 -11.323  0.318E-01  0.718E-13  0.489E-02  0.269E-01
 -11.313  0.323E-01  0.709E-13  0.494E-02  0.273E-01
 -11.303  0.328E-01  0.703E-13  0.499E-02  0.278E-01
 -11.293  0.333E-01  0.700E-13  0.505E-02  0.283E-01
 -11.283  0.338E-01  0.700E-13  0.510E-02  0.287E-01
 -11.273  0.343E-01  0.704E-13  0.515E-02  0.292E-01
 -11.263  0.348E-01  0.710E-13  0.521E-02  0.296E-01
 -11.253  0.353E-01  0.720E-13  0.526E-02  0.301E-01
 -11.243  0.359E-01  0.733E-13  0.531E-02  0.305E-01
 -11.233  0.364E-01  0.749E-13  0.536E-02  0.310E-01
 -11.223  0.369E-01  0.769E-13  0.541E-02  0.315E-01
 -11.213  0.374E-01  0.791E-13  0.546E-02  0.319E-01
 -11.203  0.379E-01  0.817E-13  0.551E-02  0.324E-01
 -11.193  0.384E-01  0.846E-13  0.556E-02  0.328E-01
 -11.183  0.410E-01  0.913E-13  0.591E-02  0.351E-01
 -11.173  0.426E-01  0.980E-13  0.611E-02  0.365E-01
 -11.163  0.441E-01  0.104E-12  0.630E-02  0.378E-01
 -11.153  0.456E-01  0.110E-12  0.650E-02  0.391E-01
 -11.143  0.471E-01  0.114E-12  0.670E-02  0.404E-01
 -11.133  0.487E-01  0.119E-12  0.690E-02  0.418E-01
 -11.123  0.502E-01  0.122E-12  0.711E-02  0.431E-01
 -11.113  0.517E-01  0.126E-12  0.732E-02  0.443E-01
 -11.103  0.532E-01  0.128E-12  0.753E-02  0.456E-01
 -11.093  0.547E-01  0.130E-12  0.775E-02  0.469E-01
 -11.083  0.561E-01  0.131E-12  0.797E-02  0.482E-01
 -11.073  0.576E-01  0.132E-12  0.820E-02  0.494E-01
 -11.063  0.591E-01  0.132E-12  0.843E-02  0.507E-01
 -11.053  0.606E-01  0.132E-12  0.867E-02  0.519E-01
 -11.043  0.620E-01  0.130E-12  0.891E-02  0.531E-01
 -11.033  0.635E-01  0.129E-12  0.916E-02  0.543E-01
 -11.023  0.649E-01  0.126E-12  0.941E-02  0.555E-01
 -11.013  0.964E-01  0.126E-12  0.212E-01  0.752E-01
 -11.003  0.146E+00  0.124E-12  0.396E-01  0.106E+00
 -10.993  0.171E+00  0.120E-12  0.487E-01  0.123E+00
 -10.983  0.197E+00  0.117E-12  0.575E-01  0.140E+00
 -10.973  0.219E+00  0.112E-12  0.650E-01  0.154E+00
 -10.963  0.263E+00  0.152E-12  0.755E-01  0.187E+00
 -10.953  0.294E+00  0.168E-12  0.841E-01  0.210E+00
 -10.943  0.327E+00  0.171E-12  0.933E-01  0.234E+00
 -10.933  0.374E+00  0.160E-12  0.106E+00  0.268E+00
 -10.923  0.410E+00  0.138E-12  0.116E+00  0.294E+00
 -10.913  0.371E+00  0.113E-12  0.102E+00  0.269E+00
 -10.903  0.344E+00  0.933E-13  0.928E-01  0.251E+00
 -10.893  0.325E+00  0.782E-13  0.866E-01  0.238E+00
 -10.883  0.306E+00  0.668E-13  0.807E-01  0.226E+00
 -10.873  0.288E+00  0.593E-13  0.750E-01  0.213E+00
 -10.863  0.265E+00  0.553E-13  0.680E-01  0.197E+00
 -10.853  0.207E+00  0.459E-13  0.536E-01  0.153E+00
 -10.843  0.178E+00  0.428E-13  0.459E-01  0.132E+00
 -10.833  0.177E+00  0.418E-13  0.454E-01  0.131E+00
 -10.823  0.175E+00  0.409E-13  0.449E-01  0.130E+00
 -10.813  0.174E+00  0.400E-13  0.445E-01  0.130E+00
 -10.803  0.173E+00  0.392E-13  0.440E-01  0.129E+00
 -10.793  0.171E+00  0.383E-13  0.435E-01  0.128E+00
 -10.783  0.170E+00  0.375E-13  0.430E-01  0.127E+00
 -10.773  0.169E+00  0.368E-13  0.426E-01  0.126E+00
 -10.763  0.167E+00  0.360E-13  0.421E-01  0.125E+00
 -10.753  0.164E+00  0.350E-13  0.414E-01  0.123E+00
 -10.743  0.163E+00  0.350E-13  0.409E-01  0.122E+00
 -10.733  0.161E+00  0.350E-13  0.404E-01  0.121E+00
 -10.723  0.160E+00  0.351E-13  0.399E-01  0.120E+00
 -10.713  0.158E+00  0.353E-13  0.394E-01  0.119E+00
 -10.703  0.156E+00  0.355E-13  0.389E-01  0.118E+00
 -10.693  0.155E+00  0.357E-13  0.384E-01  0.116E+00
 -10.683  0.153E+00  0.360E-13  0.379E-01  0.115E+00
 -10.673  0.145E+00  0.312E-13  0.351E-01  0.110E+00
 -10.663  0.140E+00  0.293E-13  0.335E-01  0.106E+00
 -10.653  0.133E+00  0.277E-13  0.316E-01  0.101E+00
 -10.643  0.123E+00  0.263E-13  0.292E-01  0.942E-01
 -10.633  0.120E+00  0.256E-13  0.283E-01  0.921E-01
 -10.623  0.119E+00  0.252E-13  0.279E-01  0.910E-01
 -10.613  0.117E+00  0.249E-13  0.274E-01  0.900E-01
 -10.603  0.116E+00  0.246E-13  0.270E-01  0.889E-01
 -10.593  0.114E+00  0.244E-13  0.265E-01  0.878E-01
 -10.583  0.113E+00  0.242E-13  0.261E-01  0.868E-01
 -10.573  0.111E+00  0.241E-13  0.256E-01  0.857E-01
 -10.563  0.110E+00  0.240E-13  0.252E-01  0.846E-01
 -10.553  0.108E+00  0.240E-13  0.248E-01  0.835E-01
 -10.543  0.107E+00  0.241E-13  0.243E-01  0.824E-01
 -10.533  0.106E+00  0.242E-13  0.240E-01  0.816E-01
 -10.523  0.105E+00  0.244E-13  0.236E-01  0.814E-01
 -10.513  0.104E+00  0.246E-13  0.233E-01  0.811E-01
 -10.503  0.104E+00  0.247E-13  0.230E-01  0.808E-01
 -10.493  0.103E+00  0.249E-13  0.227E-01  0.805E-01
 -10.483  0.103E+00  0.251E-13  0.225E-01  0.802E-01
 -10.473  0.102E+00  0.252E-13  0.222E-01  0.799E-01
 -10.463  0.101E+00  0.254E-13  0.219E-01  0.795E-01
 -10.453  0.101E+00  0.255E-13  0.217E-01  0.792E-01
 -10.443  0.100E+00  0.257E-13  0.214E-01  0.788E-01
 -10.433  0.997E-01  0.259E-13  0.212E-01  0.785E-01
 -10.423  0.991E-01  0.260E-13  0.210E-01  0.781E-01
 -10.413  0.985E-01  0.262E-13  0.208E-01  0.777E-01
 -10.403  0.979E-01  0.263E-13  0.205E-01  0.773E-01
 -10.393  0.886E-01  0.214E-13  0.192E-01  0.694E-01
 -10.383  0.888E-01  0.213E-13  0.190E-01  0.698E-01
 -10.373  0.891E-01  0.212E-13  0.189E-01  0.702E-01
 -10.363  0.881E-01  0.209E-13  0.184E-01  0.696E-01
 -10.353  0.861E-01  0.215E-13  0.178E-01  0.683E-01
 -10.343  0.848E-01  0.226E-13  0.174E-01  0.674E-01
 -10.333  0.835E-01  0.235E-13  0.170E-01  0.666E-01
 -10.323  0.823E-01  0.245E-13  0.166E-01  0.657E-01
 -10.313  0.810E-01  0.254E-13  0.162E-01  0.648E-01
 -10.303  0.797E-01  0.263E-13  0.158E-01  0.640E-01
 -10.293  0.785E-01  0.271E-13  0.154E-01  0.631E-01
 -10.283  0.772E-01  0.279E-13  0.150E-01  0.622E-01
 -10.273  0.759E-01  0.287E-13  0.146E-01  0.613E-01
 -10.263  0.747E-01  0.294E-13  0.143E-01  0.604E-01
 -10.253  0.734E-01  0.301E-13  0.139E-01  0.595E-01
 -10.243  0.721E-01  0.308E-13  0.135E-01  0.586E-01
 -10.233  0.709E-01  0.314E-13  0.132E-01  0.577E-01
 -10.223  0.696E-01  0.320E-13  0.129E-01  0.567E-01
 -10.213  0.683E-01  0.325E-13  0.125E-01  0.558E-01
 -10.203  0.671E-01  0.331E-13  0.122E-01  0.549E-01
 -10.193  0.658E-01  0.336E-13  0.119E-01  0.539E-01
 -10.183  0.646E-01  0.340E-13  0.116E-01  0.530E-01
 -10.173  0.633E-01  0.344E-13  0.113E-01  0.520E-01
 -10.163  0.627E-01  0.353E-13  0.111E-01  0.516E-01
 -10.153  0.629E-01  0.370E-13  0.109E-01  0.520E-01
 -10.143  0.632E-01  0.386E-13  0.108E-01  0.524E-01
 -10.133  0.635E-01  0.401E-13  0.107E-01  0.528E-01
 -10.123  0.638E-01  0.417E-13  0.106E-01  0.532E-01
 -10.113  0.641E-01  0.432E-13  0.105E-01  0.536E-01
 -10.103  0.643E-01  0.447E-13  0.104E-01  0.539E-01
 -10.093  0.646E-01  0.461E-13  0.104E-01  0.542E-01
 -10.083  0.649E-01  0.475E-13  0.104E-01  0.545E-01
 -10.073  0.652E-01  0.489E-13  0.104E-01  0.548E-01
 -10.063  0.655E-01  0.502E-13  0.104E-01  0.551E-01
 -10.053  0.658E-01  0.515E-13  0.105E-01  0.553E-01
 -10.043  0.523E-01  0.380E-13  0.861E-02  0.437E-01
 -10.033  0.538E-01  0.384E-13  0.872E-02  0.450E-01
 -10.023  0.552E-01  0.381E-13  0.888E-02  0.464E-01
 -10.013  0.548E-01  0.364E-13  0.869E-02  0.462E-01
 -10.003  0.538E-01  0.343E-13  0.838E-02  0.454E-01
  -9.993  0.527E-01  0.323E-13  0.808E-02  0.446E-01
  -9.983  0.516E-01  0.304E-13  0.778E-02  0.439E-01
  -9.973  0.506E-01  0.286E-13  0.749E-02  0.431E-01
  -9.963  0.495E-01  0.269E-13  0.720E-02  0.423E-01
  -9.953  0.484E-01  0.252E-13  0.692E-02  0.415E-01
  -9.943  0.474E-01  0.236E-13  0.665E-02  0.407E-01
  -9.933  0.463E-01  0.222E-13  0.638E-02  0.399E-01
  -9.923  0.452E-01  0.208E-13  0.612E-02  0.391E-01
  -9.913  0.441E-01  0.194E-13  0.587E-02  0.383E-01
  -9.903  0.431E-01  0.182E-13  0.562E-02  0.375E-01
  -9.893  0.451E-01  0.263E-13  0.682E-02  0.383E-01
  -9.883  0.168E+00  0.318E-12  0.638E-01  0.104E+00
  -9.873  0.291E+00  0.453E-12  0.119E+00  0.172E+00
  -9.863  0.415E+00  0.433E-12  0.173E+00  0.241E+00
  -9.853  0.587E+00  0.409E-12  0.247E+00  0.339E+00
  -9.843  0.631E+00  0.397E-12  0.259E+00  0.372E+00
  -9.833  0.450E+00  0.232E-12  0.176E+00  0.275E+00
  -9.823  0.318E+00  0.129E-12  0.121E+00  0.197E+00
  -9.813  0.299E+00  0.109E-12  0.112E+00  0.187E+00
  -9.803  0.284E+00  0.928E-13  0.105E+00  0.179E+00
  -9.793  0.272E+00  0.767E-13  0.988E-01  0.173E+00
  -9.783  0.305E+00  0.717E-13  0.108E+00  0.197E+00
  -9.773  0.255E+00  0.724E-13  0.899E-01  0.165E+00
  -9.763  0.205E+00  0.487E-13  0.741E-01  0.131E+00
  -9.753  0.209E+00  0.458E-13  0.744E-01  0.134E+00
  -9.743  0.230E+00  0.491E-13  0.799E-01  0.150E+00
  -9.733  0.251E+00  0.449E-13  0.853E-01  0.166E+00
  -9.723  0.232E+00  0.355E-13  0.791E-01  0.153E+00
  -9.713  0.234E+00  0.515E-13  0.789E-01  0.155E+00
  -9.703  0.268E+00  0.730E-13  0.924E-01  0.175E+00
  -9.693  0.210E+00  0.841E-13  0.730E-01  0.137E+00
  -9.683  0.200E+00  0.103E-12  0.686E-01  0.131E+00
  -9.673  0.196E+00  0.120E-12  0.665E-01  0.130E+00
  -9.663  0.192E+00  0.132E-12  0.644E-01  0.128E+00
  -9.653  0.188E+00  0.141E-12  0.622E-01  0.126E+00
  -9.643  0.181E+00  0.135E-12  0.590E-01  0.122E+00
  -9.633  0.178E+00  0.129E-12  0.581E-01  0.120E+00
  -9.623  0.176E+00  0.124E-12  0.572E-01  0.118E+00
  -9.613  0.175E+00  0.120E-12  0.570E-01  0.118E+00
  -9.603  0.177E+00  0.115E-12  0.573E-01  0.120E+00
  -9.593  0.178E+00  0.111E-12  0.575E-01  0.121E+00
  -9.583  0.180E+00  0.106E-12  0.576E-01  0.122E+00
  -9.573  0.181E+00  0.101E-12  0.578E-01  0.123E+00
  -9.563  0.182E+00  0.952E-13  0.580E-01  0.124E+00
  -9.553  0.184E+00  0.894E-13  0.581E-01  0.126E+00
  -9.543  0.185E+00  0.834E-13  0.582E-01  0.127E+00
  -9.533  0.187E+00  0.772E-13  0.583E-01  0.128E+00
  -9.523  0.188E+00  0.706E-13  0.584E-01  0.130E+00
  -9.513  0.189E+00  0.638E-13  0.585E-01  0.131E+00
  -9.503  0.185E+00  0.589E-13  0.571E-01  0.128E+00
  -9.493  0.185E+00  0.567E-13  0.567E-01  0.128E+00
  -9.483  0.185E+00  0.541E-13  0.563E-01  0.129E+00
  -9.473  0.185E+00  0.510E-13  0.559E-01  0.129E+00
  -9.463  0.184E+00  0.474E-13  0.554E-01  0.129E+00
  -9.453  0.184E+00  0.433E-13  0.550E-01  0.129E+00
  -9.443  0.217E+00  0.528E-13  0.648E-01  0.152E+00
  -9.433  0.206E+00  0.679E-13  0.603E-01  0.145E+00
  -9.423  0.200E+00  0.857E-13  0.569E-01  0.143E+00
  -9.413  0.196E+00  0.968E-13  0.544E-01  0.142E+00
  -9.403  0.193E+00  0.101E-12  0.520E-01  0.141E+00
  -9.393  0.192E+00  0.101E-12  0.505E-01  0.141E+00
  -9.383  0.199E+00  0.115E-12  0.513E-01  0.148E+00
  -9.373  0.207E+00  0.126E-12  0.520E-01  0.155E+00
  -9.363  0.215E+00  0.135E-12  0.526E-01  0.162E+00
  -9.353  0.223E+00  0.143E-12  0.530E-01  0.170E+00
  -9.343  0.231E+00  0.148E-12  0.534E-01  0.177E+00
  -9.333  0.238E+00  0.151E-12  0.536E-01  0.185E+00
  -9.323  0.246E+00  0.151E-12  0.536E-01  0.192E+00
  -9.313  0.249E+00  0.147E-12  0.525E-01  0.197E+00
  -9.303  0.256E+00  0.142E-12  0.520E-01  0.204E+00
  -9.293  0.263E+00  0.135E-12  0.516E-01  0.212E+00
  -9.283  0.270E+00  0.126E-12  0.510E-01  0.219E+00
  -9.273  0.217E+00  0.805E-13  0.457E-01  0.171E+00
  -9.263  0.215E+00  0.787E-13  0.446E-01  0.170E+00
  -9.253  0.213E+00  0.779E-13  0.436E-01  0.169E+00
  -9.243  0.211E+00  0.780E-13  0.427E-01  0.169E+00
  -9.233  0.210E+00  0.791E-13  0.418E-01  0.168E+00
  -9.223  0.208E+00  0.810E-13  0.410E-01  0.167E+00
  -9.213  0.207E+00  0.837E-13  0.402E-01  0.166E+00
  -9.203  0.205E+00  0.872E-13  0.395E-01  0.166E+00
  -9.193  0.204E+00  0.913E-13  0.388E-01  0.165E+00
  -9.183  0.203E+00  0.948E-13  0.382E-01  0.165E+00
  -9.173  0.202E+00  0.975E-13  0.377E-01  0.165E+00
  -9.163  0.202E+00  0.995E-13  0.371E-01  0.164E+00
  -9.153  0.201E+00  0.101E-12  0.366E-01  0.164E+00
  -9.143  0.200E+00  0.101E-12  0.361E-01  0.164E+00
  -9.133  0.199E+00  0.101E-12  0.356E-01  0.164E+00
  -9.123  0.199E+00  0.100E-12  0.353E-01  0.164E+00
  -9.113  0.198E+00  0.987E-13  0.347E-01  0.163E+00
  -9.103  0.196E+00  0.964E-13  0.341E-01  0.162E+00
  -9.093  0.193E+00  0.927E-13  0.333E-01  0.160E+00
  -9.083  0.190E+00  0.879E-13  0.323E-01  0.157E+00
  -9.073  0.188E+00  0.849E-13  0.316E-01  0.156E+00
  -9.063  0.188E+00  0.838E-13  0.311E-01  0.156E+00
  -9.053  0.187E+00  0.823E-13  0.305E-01  0.156E+00
  -9.043  0.187E+00  0.803E-13  0.300E-01  0.157E+00
  -9.033  0.186E+00  0.779E-13  0.295E-01  0.157E+00
  -9.023  0.186E+00  0.750E-13  0.290E-01  0.157E+00
  -9.013  0.185E+00  0.717E-13  0.285E-01  0.157E+00
  -9.003  0.185E+00  0.679E-13  0.280E-01  0.157E+00
  -8.993  0.184E+00  0.638E-13  0.276E-01  0.157E+00
  -8.983  0.184E+00  0.592E-13  0.272E-01  0.157E+00
  -8.973  0.184E+00  0.542E-13  0.268E-01  0.157E+00
  -8.963  0.184E+00  0.488E-13  0.265E-01  0.157E+00
  -8.953  0.183E+00  0.430E-13  0.261E-01  0.157E+00
  -8.943  0.183E+00  0.367E-13  0.257E-01  0.157E+00
  -8.933  0.177E+00  0.314E-13  0.250E-01  0.152E+00
  -8.923  0.177E+00  0.309E-13  0.247E-01  0.153E+00
  -8.913  0.178E+00  0.302E-13  0.244E-01  0.154E+00
  -8.903  0.179E+00  0.295E-13  0.241E-01  0.155E+00
  -8.893  0.180E+00  0.287E-13  0.239E-01  0.156E+00
  -8.883  0.181E+00  0.278E-13  0.237E-01  0.158E+00
  -8.873  0.183E+00  0.268E-13  0.236E-01  0.159E+00
  -8.863  0.184E+00  0.258E-13  0.234E-01  0.161E+00
  -8.853  0.186E+00  0.247E-13  0.234E-01  0.163E+00
  -8.843  0.189E+00  0.233E-13  0.233E-01  0.165E+00
  -8.833  0.187E+00  0.225E-13  0.229E-01  0.164E+00
  -8.823  0.185E+00  0.221E-13  0.224E-01  0.163E+00
  -8.813  0.183E+00  0.217E-13  0.219E-01  0.162E+00
  -8.803  0.182E+00  0.212E-13  0.214E-01  0.160E+00
  -8.793  0.180E+00  0.208E-13  0.209E-01  0.159E+00
  -8.783  0.178E+00  0.202E-13  0.205E-01  0.157E+00
  -8.773  0.176E+00  0.197E-13  0.200E-01  0.156E+00
  -8.763  0.174E+00  0.191E-13  0.196E-01  0.155E+00
  -8.753  0.172E+00  0.184E-13  0.191E-01  0.153E+00
  -8.743  0.172E+00  0.187E-13  0.187E-01  0.153E+00
  -8.733  0.172E+00  0.188E-13  0.184E-01  0.153E+00
  -8.723  0.172E+00  0.187E-13  0.180E-01  0.154E+00
  -8.713  0.171E+00  0.185E-13  0.177E-01  0.154E+00
  -8.703  0.171E+00  0.181E-13  0.174E-01  0.154E+00
  -8.693  0.171E+00  0.175E-13  0.170E-01  0.154E+00
  -8.683  0.171E+00  0.168E-13  0.168E-01  0.154E+00
  -8.673  0.170E+00  0.159E-13  0.165E-01  0.154E+00
  -8.663  0.170E+00  0.148E-13  0.162E-01  0.154E+00
  -8.653  0.183E+00  0.144E-13  0.168E-01  0.166E+00
  -8.643  0.202E+00  0.219E-13  0.173E-01  0.185E+00
  -8.633  0.192E+00  0.303E-13  0.164E-01  0.175E+00
  -8.623  0.181E+00  0.363E-13  0.157E-01  0.165E+00
  -8.613  0.170E+00  0.401E-13  0.149E-01  0.155E+00
  -8.603  0.159E+00  0.414E-13  0.143E-01  0.145E+00
  -8.593  0.148E+00  0.404E-13  0.136E-01  0.134E+00
  -8.583  0.143E+00  0.377E-13  0.138E-01  0.129E+00
  -8.573  0.133E+00  0.313E-13  0.134E-01  0.119E+00
  -8.563  0.123E+00  0.226E-13  0.130E-01  0.110E+00
  -8.553  0.112E+00  0.116E-13  0.127E-01  0.997E-01
  -8.543  0.114E+00  0.114E-13  0.126E-01  0.101E+00
  -8.533  0.116E+00  0.111E-13  0.126E-01  0.103E+00
  -8.523  0.117E+00  0.109E-13  0.125E-01  0.105E+00
  -8.513  0.119E+00  0.106E-13  0.124E-01  0.106E+00
  -8.503  0.120E+00  0.104E-13  0.122E-01  0.108E+00
  -8.493  0.122E+00  0.101E-13  0.121E-01  0.109E+00
  -8.483  0.123E+00  0.988E-14  0.120E-01  0.111E+00
  -8.473  0.124E+00  0.963E-14  0.119E-01  0.113E+00
  -8.463  0.126E+00  0.938E-14  0.117E-01  0.114E+00
  -8.453  0.127E+00  0.912E-14  0.116E-01  0.116E+00
  -8.443  0.129E+00  0.886E-14  0.114E-01  0.118E+00
  -8.433  0.130E+00  0.861E-14  0.112E-01  0.119E+00
  -8.423  0.132E+00  0.835E-14  0.111E-01  0.121E+00
  -8.413  0.133E+00  0.809E-14  0.109E-01  0.123E+00
  -8.403  0.135E+00  0.782E-14  0.107E-01  0.124E+00
  -8.393  0.136E+00  0.756E-14  0.105E-01  0.126E+00
  -8.383  0.138E+00  0.729E-14  0.103E-01  0.128E+00
  -8.373  0.150E+00  0.740E-14  0.107E-01  0.140E+00
  -8.363  0.167E+00  0.820E-14  0.114E-01  0.156E+00
  -8.353  0.180E+00  0.982E-14  0.117E-01  0.168E+00
  -8.343  0.194E+00  0.140E-13  0.121E-01  0.182E+00
  -8.333  0.201E+00  0.194E-13  0.120E-01  0.189E+00
  -8.323  0.209E+00  0.249E-13  0.117E-01  0.197E+00
  -8.313  0.216E+00  0.307E-13  0.115E-01  0.205E+00
  -8.303  0.223E+00  0.366E-13  0.112E-01  0.212E+00
  -8.293  0.230E+00  0.426E-13  0.108E-01  0.219E+00
  -8.283  0.233E+00  0.480E-13  0.105E-01  0.223E+00
  -8.273  0.237E+00  0.531E-13  0.102E-01  0.227E+00
  -8.263  0.241E+00  0.579E-13  0.101E-01  0.231E+00
  -8.253  0.179E+00  0.594E-13  0.839E-02  0.170E+00
  -8.243  0.179E+00  0.667E-13  0.812E-02  0.171E+00
  -8.233  0.179E+00  0.744E-13  0.787E-02  0.172E+00
  -8.223  0.180E+00  0.825E-13  0.764E-02  0.172E+00
  -8.213  0.180E+00  0.911E-13  0.743E-02  0.173E+00
  -8.203  0.181E+00  0.100E-12  0.724E-02  0.174E+00
  -8.193  0.179E+00  0.113E-12  0.699E-02  0.172E+00
  -8.183  0.177E+00  0.135E-12  0.676E-02  0.171E+00
  -8.173  0.176E+00  0.166E-12  0.655E-02  0.169E+00
  -8.163  0.175E+00  0.206E-12  0.638E-02  0.168E+00
  -8.153  0.175E+00  0.252E-12  0.630E-02  0.169E+00
  -8.143  0.180E+00  0.307E-12  0.643E-02  0.173E+00
  -8.133  0.177E+00  0.344E-12  0.608E-02  0.171E+00
  -8.123  0.175E+00  0.378E-12  0.574E-02  0.169E+00
  -8.113  0.172E+00  0.411E-12  0.541E-02  0.167E+00
  -8.103  0.169E+00  0.442E-12  0.510E-02  0.164E+00
  -8.093  0.167E+00  0.471E-12  0.479E-02  0.162E+00
  -8.083  0.164E+00  0.498E-12  0.450E-02  0.160E+00
  -8.073  0.162E+00  0.523E-12  0.423E-02  0.157E+00
  -8.063  0.159E+00  0.546E-12  0.396E-02  0.155E+00
  -8.053  0.153E+00  0.506E-12  0.361E-02  0.149E+00
  -8.043  0.153E+00  0.494E-12  0.339E-02  0.150E+00
  -8.033  0.154E+00  0.471E-12  0.319E-02  0.151E+00
  -8.023  0.154E+00  0.439E-12  0.300E-02  0.151E+00
  -8.013  0.159E+00  0.452E-12  0.655E-02  0.152E+00
  -8.003  0.181E+00  0.552E-12  0.145E-01  0.166E+00
  -7.993  0.194E+00  0.655E-12  0.203E-01  0.174E+00
  -7.983  0.195E+00  0.747E-12  0.240E-01  0.171E+00
  -7.973  0.195E+00  0.828E-12  0.258E-01  0.169E+00
  -7.963  0.196E+00  0.900E-12  0.256E-01  0.170E+00
  -7.953  0.200E+00  0.963E-12  0.236E-01  0.176E+00
  -7.943  0.203E+00  0.997E-12  0.197E-01  0.183E+00
  -7.933  0.206E+00  0.100E-11  0.139E-01  0.192E+00
  -7.923  0.208E+00  0.977E-12  0.623E-02  0.202E+00
  -7.913  0.000E+00  0.000E+00  0.000E+00  0.000E+00
  -7.903  0.000E+00  0.000E+00  0.000E+00  0.000E+00
  -7.893  0.845E+00  0.518E-11  0.684E+00  0.161E+00
  -7.883  0.492E-01  0.117E-12  0.464E-01  0.283E-02
  -7.873  0.499E-01  0.118E-12  0.468E-01  0.301E-02
  -7.863  0.505E-01  0.118E-12  0.473E-01  0.319E-02
  -7.853  0.512E-01  0.118E-12  0.478E-01  0.338E-02
  -7.843  0.518E-01  0.118E-12  0.483E-01  0.357E-02
  -7.833  0.525E-01  0.118E-12  0.487E-01  0.378E-02
  -7.823  0.531E-01  0.118E-12  0.492E-01  0.398E-02
  -7.813  0.538E-01  0.118E-12  0.496E-01  0.420E-02
  -7.803  0.545E-01  0.118E-12  0.500E-01  0.442E-02
  -7.793  0.551E-01  0.117E-12  0.505E-01  0.464E-02
  -7.783  0.558E-01  0.117E-12  0.509E-01  0.488E-02
  -7.773  0.564E-01  0.117E-12  0.513E-01  0.511E-02
  -7.763  0.571E-01  0.117E-12  0.517E-01  0.536E-02
  -7.753  0.577E-01  0.116E-12  0.521E-01  0.561E-02
  -7.743  0.584E-01  0.116E-12  0.525E-01  0.587E-02
  -7.733  0.592E-01  0.116E-12  0.530E-01  0.614E-02
  -7.723  0.604E-01  0.116E-12  0.540E-01  0.646E-02
  -7.713  0.617E-01  0.116E-12  0.549E-01  0.678E-02
  -7.703  0.630E-01  0.116E-12  0.558E-01  0.711E-02
  -7.693  0.642E-01  0.116E-12  0.568E-01  0.744E-02
  -7.683  0.655E-01  0.116E-12  0.577E-01  0.777E-02
  -7.673  0.667E-01  0.116E-12  0.586E-01  0.811E-02
  -7.663  0.680E-01  0.116E-12  0.596E-01  0.846E-02
  -7.653  0.693E-01  0.115E-12  0.605E-01  0.880E-02
  -7.643  0.701E-01  0.113E-12  0.610E-01  0.909E-02
  -7.633  0.722E-01  0.141E-12  0.630E-01  0.928E-02
  -7.623  0.850E-01  0.310E-12  0.755E-01  0.950E-02
  -7.613  0.978E-01  0.413E-12  0.880E-01  0.978E-02
  -7.603  0.111E+00  0.450E-12  0.100E+00  0.101E-01
  -7.593  0.123E+00  0.422E-12  0.113E+00  0.105E-01
  -7.583  0.136E+00  0.328E-12  0.125E+00  0.110E-01
  -7.573  0.149E+00  0.168E-12  0.138E+00  0.116E-01
  -7.563  0.118E+00  0.126E-12  0.106E+00  0.114E-01
  -7.553  0.120E+00  0.161E-12  0.108E+00  0.118E-01
  -7.543  0.122E+00  0.194E-12  0.109E+00  0.121E-01
  -7.533  0.123E+00  0.227E-12  0.111E+00  0.125E-01
  -7.523  0.125E+00  0.257E-12  0.112E+00  0.129E-01
  -7.513  0.127E+00  0.287E-12  0.114E+00  0.133E-01
  -7.503  0.129E+00  0.315E-12  0.115E+00  0.137E-01
  -7.493  0.131E+00  0.341E-12  0.117E+00  0.141E-01
  -7.483  0.133E+00  0.367E-12  0.118E+00  0.145E-01
  -7.473  0.134E+00  0.390E-12  0.119E+00  0.149E-01
  -7.463  0.136E+00  0.413E-12  0.121E+00  0.153E-01
  -7.453  0.143E+00  0.437E-12  0.127E+00  0.165E-01
  -7.443  0.144E+00  0.445E-12  0.127E+00  0.169E-01
  -7.433  0.144E+00  0.445E-12  0.127E+00  0.173E-01
  -7.423  0.145E+00  0.441E-12  0.127E+00  0.177E-01
  -7.413  0.146E+00  0.433E-12  0.127E+00  0.181E-01
  -7.403  0.146E+00  0.420E-12  0.128E+00  0.186E-01
  -7.393  0.147E+00  0.404E-12  0.128E+00  0.190E-01
  -7.383  0.149E+00  0.388E-12  0.129E+00  0.195E-01
  -7.373  0.151E+00  0.373E-12  0.131E+00  0.200E-01
  -7.363  0.152E+00  0.359E-12  0.132E+00  0.205E-01
  -7.353  0.154E+00  0.345E-12  0.133E+00  0.210E-01
  -7.343  0.156E+00  0.331E-12  0.134E+00  0.215E-01
  -7.333  0.157E+00  0.317E-12  0.135E+00  0.220E-01
  -7.323  0.159E+00  0.303E-12  0.136E+00  0.226E-01
  -7.313  0.161E+00  0.290E-12  0.138E+00  0.231E-01
  -7.303  0.164E+00  0.281E-12  0.140E+00  0.241E-01
  -7.293  0.167E+00  0.270E-12  0.142E+00  0.248E-01
  -7.283  0.169E+00  0.260E-12  0.143E+00  0.254E-01
  -7.273  0.171E+00  0.250E-12  0.145E+00  0.261E-01
  -7.263  0.173E+00  0.240E-12  0.147E+00  0.268E-01
  -7.253  0.176E+00  0.231E-12  0.148E+00  0.275E-01
  -7.243  0.178E+00  0.230E-12  0.150E+00  0.281E-01
  -7.233  0.181E+00  0.238E-12  0.152E+00  0.289E-01
  -7.223  0.185E+00  0.247E-12  0.155E+00  0.298E-01
  -7.213  0.189E+00  0.254E-12  0.158E+00  0.307E-01
  -7.203  0.192E+00  0.261E-12  0.161E+00  0.316E-01
  -7.193  0.196E+00  0.266E-12  0.164E+00  0.325E-01
  -7.183  0.200E+00  0.271E-12  0.166E+00  0.334E-01
  -7.173  0.204E+00  0.274E-12  0.169E+00  0.344E-01
  -7.163  0.207E+00  0.277E-12  0.172E+00  0.353E-01
  -7.153  0.211E+00  0.278E-12  0.175E+00  0.363E-01
  -7.143  0.215E+00  0.278E-12  0.177E+00  0.372E-01
  -7.133  0.217E+00  0.276E-12  0.179E+00  0.380E-01
  -7.123  0.219E+00  0.274E-12  0.181E+00  0.387E-01
  -7.113  0.221E+00  0.272E-12  0.182E+00  0.394E-01
  -7.103  0.224E+00  0.270E-12  0.184E+00  0.401E-01
  -7.093  0.226E+00  0.267E-12  0.185E+00  0.408E-01
  -7.083  0.228E+00  0.265E-12  0.187E+00  0.416E-01
  -7.073  0.230E+00  0.263E-12  0.188E+00  0.423E-01
  -7.063  0.233E+00  0.261E-12  0.190E+00  0.431E-01
  -7.053  0.295E+00  0.599E-01  0.191E+00  0.439E-01
  -7.043  0.381E+00  0.142E+00  0.194E+00  0.449E-01
  -7.033  0.336E+00  0.913E-01  0.199E+00  0.461E-01
  -7.023  0.348E+00  0.982E-01  0.203E+00  0.474E-01
  -7.013  0.417E+00  0.105E+00  0.253E+00  0.591E-01
  -7.003  0.429E+00  0.112E+00  0.257E+00  0.604E-01
  -6.993  0.446E+00  0.113E+00  0.268E+00  0.645E-01
  -6.983  0.451E+00  0.105E+00  0.278E+00  0.682E-01
  -6.973  0.454E+00  0.992E-01  0.284E+00  0.706E-01
  -6.963  0.465E+00  0.102E+00  0.291E+00  0.730E-01
  -6.953  0.475E+00  0.104E+00  0.295E+00  0.752E-01
  -6.943  0.476E+00  0.107E+00  0.293E+00  0.758E-01
  -6.933  0.476E+00  0.109E+00  0.291E+00  0.762E-01
  -6.923  0.477E+00  0.112E+00  0.289E+00  0.765E-01
  -6.913  0.477E+00  0.114E+00  0.286E+00  0.767E-01
  -6.903  0.465E+00  0.105E+00  0.283E+00  0.769E-01
  -6.893  0.462E+00  0.105E+00  0.281E+00  0.770E-01
  -6.883  0.462E+00  0.104E+00  0.280E+00  0.775E-01
  -6.873  0.461E+00  0.104E+00  0.279E+00  0.780E-01
  -6.863  0.462E+00  0.105E+00  0.279E+00  0.783E-01
  -6.853  0.493E+00  0.106E+00  0.303E+00  0.841E-01
  -6.843  0.505E+00  0.107E+00  0.311E+00  0.867E-01
  -6.833  0.517E+00  0.109E+00  0.319E+00  0.894E-01
  -6.823  0.529E+00  0.110E+00  0.327E+00  0.921E-01
  -6.813  0.541E+00  0.111E+00  0.335E+00  0.950E-01
  -6.803  0.549E+00  0.111E+00  0.341E+00  0.976E-01
  -6.793  0.691E+00  0.108E+00  0.447E+00  0.136E+00
  -6.783  0.766E+00  0.106E+00  0.506E+00  0.155E+00
  -6.773  0.844E+00  0.106E+00  0.565E+00  0.173E+00
  -6.763  0.890E+00  0.106E+00  0.601E+00  0.183E+00
  -6.753  0.805E+00  0.107E+00  0.535E+00  0.162E+00
  -6.743  0.721E+00  0.107E+00  0.469E+00  0.144E+00
  -6.733  0.681E+00  0.107E+00  0.439E+00  0.135E+00
  -6.723  0.616E+00  0.108E+00  0.390E+00  0.119E+00
  -6.713  0.552E+00  0.109E+00  0.340E+00  0.104E+00
  -6.703  0.458E+00  0.109E+00  0.267E+00  0.820E-01
  -6.693  0.287E+00  0.110E+00  0.135E+00  0.419E-01
  -6.683  0.115E+00  0.111E+00  0.328E-02  0.104E-02
  -6.673  0.112E+00  0.112E+00  0.393E-13  0.261E-13
  -6.663  0.113E+00  0.113E+00  0.390E-13  0.255E-13
  -6.653  0.110E+00  0.110E+00  0.373E-13  0.247E-13
  -6.643  0.109E+00  0.109E+00  0.368E-13  0.247E-13
  -6.633  0.109E+00  0.109E+00  0.360E-13  0.245E-13
  -6.623  0.108E+00  0.108E+00  0.351E-13  0.242E-13
  -6.613  0.108E+00  0.108E+00  0.341E-13  0.238E-13
  -6.603  0.109E+00  0.109E+00  0.332E-13  0.233E-13
  -6.593  0.109E+00  0.109E+00  0.321E-13  0.228E-13
  -6.583  0.110E+00  0.110E+00  0.310E-13  0.223E-13
  -6.573  0.110E+00  0.110E+00  0.299E-13  0.217E-13
  -6.563  0.110E+00  0.110E+00  0.287E-13  0.210E-13
  -6.553  0.111E+00  0.111E+00  0.275E-13  0.202E-13
  -6.543  0.111E+00  0.111E+00  0.262E-13  0.194E-13
  -6.533  0.112E+00  0.112E+00  0.249E-13  0.186E-13
  -6.523  0.112E+00  0.112E+00  0.236E-13  0.177E-13
  -6.513  0.113E+00  0.113E+00  0.223E-13  0.169E-13
  -6.503  0.114E+00  0.114E+00  0.210E-13  0.160E-13
  -6.493  0.113E+00  0.113E+00  0.196E-13  0.151E-13
  -6.483  0.112E+00  0.112E+00  0.192E-13  0.149E-13
  -6.473  0.112E+00  0.112E+00  0.200E-13  0.156E-13
  -6.463  0.112E+00  0.112E+00  0.214E-13  0.169E-13
  -6.453  0.112E+00  0.112E+00  0.231E-13  0.186E-13
  -6.443  0.112E+00  0.112E+00  0.250E-13  0.208E-13
  -6.433  0.112E+00  0.112E+00  0.272E-13  0.234E-13
  -6.423  0.112E+00  0.112E+00  0.297E-13  0.264E-13
  -6.413  0.112E+00  0.112E+00  0.324E-13  0.298E-13
  -6.403  0.113E+00  0.113E+00  0.351E-13  0.333E-13
  -6.393  0.113E+00  0.113E+00  0.380E-13  0.368E-13
  -6.383  0.114E+00  0.114E+00  0.408E-13  0.404E-13
  -6.373  0.114E+00  0.114E+00  0.437E-13  0.441E-13
  -6.363  0.114E+00  0.114E+00  0.467E-13  0.478E-13
  -6.353  0.115E+00  0.115E+00  0.497E-13  0.515E-13
  -6.343  0.115E+00  0.115E+00  0.528E-13  0.553E-13
  -6.333  0.116E+00  0.116E+00  0.559E-13  0.592E-13
  -6.323  0.116E+00  0.116E+00  0.590E-13  0.631E-13
  -6.313  0.117E+00  0.117E+00  0.622E-13  0.671E-13
  -6.303  0.117E+00  0.117E+00  0.654E-13  0.710E-13
  -6.293  0.116E+00  0.116E+00  0.668E-13  0.733E-13
  -6.283  0.116E+00  0.116E+00  0.684E-13  0.751E-13
  -6.273  0.116E+00  0.116E+00  0.695E-13  0.760E-13
  -6.263  0.116E+00  0.116E+00  0.701E-13  0.762E-13
  -6.253  0.116E+00  0.116E+00  0.705E-13  0.759E-13
  -6.243  0.117E+00  0.117E+00  0.709E-13  0.756E-13
  -6.233  0.117E+00  0.117E+00  0.712E-13  0.750E-13
  -6.223  0.117E+00  0.117E+00  0.715E-13  0.742E-13
  -6.213  0.118E+00  0.118E+00  0.716E-13  0.731E-13
  -6.203  0.118E+00  0.118E+00  0.717E-13  0.719E-13
  -6.193  0.118E+00  0.118E+00  0.718E-13  0.703E-13
  -6.183  0.119E+00  0.119E+00  0.717E-13  0.686E-13
  -6.173  0.119E+00  0.119E+00  0.717E-13  0.669E-13
  -6.163  0.120E+00  0.120E+00  0.717E-13  0.651E-13
  -6.153  0.120E+00  0.120E+00  0.717E-13  0.633E-13
  -6.143  0.121E+00  0.121E+00  0.717E-13  0.614E-13
  -6.133  0.122E+00  0.122E+00  0.716E-13  0.595E-13
  -6.123  0.122E+00  0.122E+00  0.716E-13  0.575E-13
  -6.113  0.123E+00  0.123E+00  0.716E-13  0.555E-13
  -6.103  0.123E+00  0.123E+00  0.716E-13  0.534E-13
  -6.093  0.124E+00  0.124E+00  0.716E-13  0.513E-13
  -6.083  0.124E+00  0.124E+00  0.716E-13  0.491E-13
  -6.073  0.124E+00  0.124E+00  0.706E-13  0.472E-13
  -6.063  0.124E+00  0.124E+00  0.695E-13  0.471E-13
  -6.053  0.125E+00  0.125E+00  0.692E-13  0.490E-13
  -6.043  0.125E+00  0.125E+00  0.693E-13  0.523E-13
  -6.033  0.126E+00  0.126E+00  0.701E-13  0.571E-13
  -6.023  0.127E+00  0.127E+00  0.714E-13  0.635E-13
  -6.013  0.127E+00  0.127E+00  0.733E-13  0.713E-13
  -6.003  0.128E+00  0.128E+00  0.759E-13  0.797E-13
  -5.993  0.129E+00  0.129E+00  0.791E-13  0.885E-13
  -5.983  0.130E+00  0.130E+00  0.829E-13  0.976E-13
  -5.973  0.131E+00  0.131E+00  0.872E-13  0.107E-12
  -5.963  0.132E+00  0.132E+00  0.921E-13  0.117E-12
  -5.953  0.133E+00  0.133E+00  0.976E-13  0.127E-12
  -5.943  0.134E+00  0.134E+00  0.104E-12  0.138E-12
  -5.933  0.136E+00  0.136E+00  0.110E-12  0.148E-12
  -5.923  0.137E+00  0.137E+00  0.117E-12  0.160E-12
  -5.913  0.139E+00  0.139E+00  0.124E-12  0.171E-12
  -5.903  0.141E+00  0.141E+00  0.131E-12  0.183E-12
  -5.893  0.142E+00  0.142E+00  0.138E-12  0.194E-12
  -5.883  0.144E+00  0.144E+00  0.145E-12  0.207E-12
  -5.873  0.146E+00  0.146E+00  0.152E-12  0.219E-12
  -5.863  0.148E+00  0.148E+00  0.159E-12  0.231E-12
  -5.853  0.149E+00  0.149E+00  0.166E-12  0.244E-12
  -5.843  0.152E+00  0.152E+00  0.174E-12  0.257E-12
  -5.833  0.155E+00  0.155E+00  0.183E-12  0.268E-12
  -5.823  0.159E+00  0.159E+00  0.195E-12  0.277E-12
  -5.813  0.164E+00  0.164E+00  0.208E-12  0.286E-12
  -5.803  0.169E+00  0.169E+00  0.222E-12  0.297E-12
  -5.793  0.174E+00  0.174E+00  0.236E-12  0.307E-12
  -5.783  0.180E+00  0.180E+00  0.249E-12  0.315E-12
  -5.773  0.192E+00  0.192E+00  0.283E-12  0.355E-12
  -5.763  0.204E+00  0.204E+00  0.320E-12  0.432E-12
  -5.753  0.216E+00  0.216E+00  0.358E-12  0.546E-12
  -5.743  0.379E+00  0.379E+00  0.502E-12  0.838E-12
  -5.733  0.184E+00  0.184E+00  0.433E-12  0.928E-12
  -5.723  0.174E+00  0.174E+00  0.462E-12  0.106E-11
  -5.713  0.163E+00  0.163E+00  0.474E-12  0.114E-11
  -5.703  0.153E+00  0.153E+00  0.471E-12  0.116E-11
  -5.693  0.143E+00  0.143E+00  0.452E-12  0.113E-11
  -5.683  0.132E+00  0.132E+00  0.417E-12  0.105E-11
  -5.673  0.122E+00  0.122E+00  0.365E-12  0.909E-12
  -5.663  0.115E+00  0.115E+00  0.323E-12  0.795E-12
  -5.653  0.120E+00  0.120E+00  0.339E-12  0.871E-12
  -5.643  0.124E+00  0.124E+00  0.332E-12  0.874E-12
  -5.633  0.129E+00  0.129E+00  0.301E-12  0.804E-12
  -5.623  0.133E+00  0.133E+00  0.245E-12  0.660E-12
  -5.613  0.889E-01  0.889E-01  0.148E-12  0.253E-12
  -5.603  0.938E-01  0.938E-01  0.160E-12  0.266E-12
  -5.593  0.979E-01  0.979E-01  0.178E-12  0.269E-12
  -5.583  0.953E-01  0.953E-01  0.194E-12  0.271E-12
  -5.573  0.919E-01  0.919E-01  0.207E-12  0.273E-12
  -5.563  0.885E-01  0.885E-01  0.221E-12  0.274E-12
  -5.553  0.851E-01  0.851E-01  0.234E-12  0.276E-12
  -5.543  0.817E-01  0.817E-01  0.247E-12  0.277E-12
  -5.533  0.783E-01  0.783E-01  0.259E-12  0.278E-12
  -5.523  0.749E-01  0.749E-01  0.272E-12  0.279E-12
  -5.513  0.715E-01  0.715E-01  0.284E-12  0.279E-12
  -5.503  0.681E-01  0.681E-01  0.297E-12  0.280E-12
  -5.493  0.686E-01  0.647E-01  0.314E-02  0.697E-03
  -5.483  0.788E-01  0.613E-01  0.143E-01  0.319E-02
  -5.473  0.890E-01  0.580E-01  0.253E-01  0.573E-02
  -5.463  0.993E-01  0.546E-01  0.364E-01  0.831E-02
  -5.453  0.112E+00  0.531E-01  0.475E-01  0.109E-01
  -5.443  0.125E+00  0.530E-01  0.585E-01  0.136E-01
  -5.433  0.139E+00  0.528E-01  0.696E-01  0.163E-01
  -5.423  0.152E+00  0.526E-01  0.806E-01  0.191E-01
  -5.413  0.166E+00  0.524E-01  0.915E-01  0.219E-01
  -5.403  0.180E+00  0.523E-01  0.103E+00  0.247E-01
  -5.393  0.157E+00  0.521E-01  0.842E-01  0.203E-01
  -5.383  0.135E+00  0.519E-01  0.667E-01  0.163E-01
  -5.373  0.137E+00  0.518E-01  0.681E-01  0.168E-01
  -5.363  0.138E+00  0.516E-01  0.695E-01  0.173E-01
  -5.353  0.119E+00  0.301E-01  0.709E-01  0.177E-01
  -5.343  0.119E+00  0.288E-01  0.723E-01  0.182E-01
  -5.333  0.120E+00  0.275E-01  0.737E-01  0.187E-01
  -5.323  0.121E+00  0.263E-01  0.750E-01  0.192E-01
  -5.313  0.121E+00  0.250E-01  0.764E-01  0.197E-01
  -5.303  0.122E+00  0.237E-01  0.778E-01  0.202E-01
  -5.293  0.122E+00  0.225E-01  0.792E-01  0.207E-01
  -5.283  0.123E+00  0.212E-01  0.806E-01  0.212E-01
  -5.273  0.124E+00  0.199E-01  0.820E-01  0.217E-01
  -5.263  0.124E+00  0.186E-01  0.834E-01  0.222E-01
  -5.253  0.125E+00  0.174E-01  0.848E-01  0.227E-01
  -5.243  0.126E+00  0.161E-01  0.862E-01  0.233E-01
  -5.233  0.126E+00  0.148E-01  0.875E-01  0.238E-01
  -5.223  0.127E+00  0.136E-01  0.889E-01  0.243E-01
  -5.213  0.127E+00  0.123E-01  0.896E-01  0.246E-01
  -5.203  0.126E+00  0.110E-01  0.903E-01  0.250E-01
  -5.193  0.126E+00  0.974E-02  0.910E-01  0.253E-01
  -5.183  0.126E+00  0.847E-02  0.916E-01  0.256E-01
  -5.173  0.125E+00  0.720E-02  0.923E-01  0.259E-01
  -5.163  0.125E+00  0.593E-02  0.930E-01  0.262E-01
  -5.153  0.125E+00  0.467E-02  0.937E-01  0.265E-01
  -5.143  0.125E+00  0.340E-02  0.944E-01  0.269E-01
  -5.133  0.125E+00  0.213E-02  0.953E-01  0.272E-01
  -5.123  0.125E+00  0.862E-03  0.963E-01  0.276E-01
  -5.113  0.126E+00  0.434E-03  0.973E-01  0.280E-01
  -5.103  0.129E+00  0.181E-02  0.983E-01  0.284E-01
  -5.093  0.131E+00  0.318E-02  0.993E-01  0.288E-01
  -5.083  0.134E+00  0.456E-02  0.100E+00  0.292E-01
  -5.073  0.137E+00  0.594E-02  0.101E+00  0.296E-01
  -5.063  0.140E+00  0.731E-02  0.102E+00  0.300E-01
  -5.053  0.142E+00  0.869E-02  0.103E+00  0.304E-01
  -5.043  0.145E+00  0.101E-01  0.104E+00  0.308E-01
  -5.033  0.148E+00  0.114E-01  0.105E+00  0.312E-01
  -5.023  0.151E+00  0.128E-01  0.106E+00  0.317E-01
  -5.013  0.153E+00  0.142E-01  0.107E+00  0.321E-01
  -5.003  0.156E+00  0.156E-01  0.108E+00  0.325E-01
  -4.993  0.159E+00  0.170E-01  0.109E+00  0.329E-01
  -4.983  0.162E+00  0.184E-01  0.110E+00  0.333E-01
  -4.973  0.165E+00  0.197E-01  0.111E+00  0.338E-01
  -4.963  0.183E+00  0.216E-01  0.124E+00  0.373E-01
  -4.953  0.186E+00  0.249E-01  0.124E+00  0.373E-01
  -4.943  0.190E+00  0.280E-01  0.124E+00  0.377E-01
  -4.933  0.194E+00  0.310E-01  0.125E+00  0.382E-01
  -4.923  0.199E+00  0.339E-01  0.126E+00  0.387E-01
  -4.913  0.202E+00  0.366E-01  0.126E+00  0.389E-01
  -4.903  0.205E+00  0.392E-01  0.126E+00  0.391E-01
  -4.893  0.208E+00  0.417E-01  0.127E+00  0.394E-01
  -4.883  0.255E+00  0.886E-01  0.127E+00  0.396E-01
  -4.873  0.255E+00  0.870E-01  0.128E+00  0.401E-01
  -4.863  0.255E+00  0.848E-01  0.130E+00  0.407E-01
  -4.853  0.255E+00  0.818E-01  0.132E+00  0.413E-01
  -4.843  0.254E+00  0.782E-01  0.134E+00  0.421E-01
  -4.833  0.254E+00  0.738E-01  0.137E+00  0.430E-01
  -4.823  0.253E+00  0.679E-01  0.141E+00  0.442E-01
  -4.813  0.250E+00  0.601E-01  0.144E+00  0.452E-01
  -4.803  0.246E+00  0.531E-01  0.147E+00  0.460E-01
  -4.793  0.242E+00  0.467E-01  0.149E+00  0.467E-01
  -4.783  0.238E+00  0.409E-01  0.150E+00  0.471E-01
  -4.773  0.234E+00  0.359E-01  0.151E+00  0.474E-01
  -4.763  0.230E+00  0.315E-01  0.151E+00  0.475E-01
  -4.753  0.240E+00  0.282E-01  0.162E+00  0.504E-01
  -4.743  0.468E+00  0.182E+00  0.221E+00  0.656E-01
  -4.733  0.717E+00  0.434E+00  0.218E+00  0.650E-01
  -4.723  0.553E+00  0.309E+00  0.187E+00  0.571E-01
  -4.713  0.606E+00  0.374E+00  0.178E+00  0.548E-01
  -4.703  0.462E+00  0.232E+00  0.175E+00  0.543E-01
  -4.693  0.461E+00  0.224E+00  0.180E+00  0.560E-01
  -4.683  0.474E+00  0.216E+00  0.197E+00  0.615E-01
  -4.673  0.472E+00  0.207E+00  0.202E+00  0.629E-01
  -4.663  0.474E+00  0.203E+00  0.207E+00  0.644E-01
  -4.653  0.481E+00  0.203E+00  0.212E+00  0.660E-01
  -4.643  0.487E+00  0.202E+00  0.217E+00  0.675E-01
  -4.633  0.495E+00  0.202E+00  0.224E+00  0.693E-01
  -4.623  0.509E+00  0.196E+00  0.240E+00  0.736E-01
  -4.613  0.527E+00  0.180E+00  0.266E+00  0.808E-01
  -4.603  0.548E+00  0.155E+00  0.303E+00  0.908E-01
  -4.593  0.502E+00  0.140E+00  0.279E+00  0.838E-01
  -4.583  0.477E+00  0.136E+00  0.262E+00  0.789E-01
  -4.573  0.451E+00  0.131E+00  0.246E+00  0.745E-01
  -4.563  0.604E+00  0.125E+00  0.372E+00  0.107E+00
  -4.553  0.513E+00  0.120E+00  0.303E+00  0.903E-01
  -4.543  0.488E+00  0.115E+00  0.287E+00  0.865E-01
  -4.533  0.499E+00  0.111E+00  0.295E+00  0.922E-01
  -4.523  0.304E+00  0.108E+00  0.147E+00  0.491E-01
  -4.513  0.294E+00  0.105E+00  0.141E+00  0.477E-01
  -4.503  0.284E+00  0.102E+00  0.136E+00  0.464E-01
  -4.493  0.274E+00  0.993E-01  0.130E+00  0.450E-01
  -4.483  0.264E+00  0.964E-01  0.124E+00  0.437E-01
  -4.473  0.254E+00  0.935E-01  0.118E+00  0.423E-01
  -4.463  0.243E+00  0.906E-01  0.112E+00  0.410E-01
  -4.453  0.247E+00  0.900E-01  0.115E+00  0.419E-01
  -4.443  0.265E+00  0.895E-01  0.130E+00  0.458E-01
  -4.433  0.318E+00  0.893E-01  0.172E+00  0.563E-01
  -4.423  0.382E+00  0.920E-01  0.222E+00  0.684E-01
  -4.413  0.446E+00  0.968E-01  0.269E+00  0.801E-01
  -4.403  0.509E+00  0.104E+00  0.314E+00  0.914E-01
  -4.393  0.571E+00  0.113E+00  0.356E+00  0.102E+00
  -4.383  0.697E+00  0.124E+00  0.446E+00  0.127E+00
  -4.373  0.549E+00  0.137E+00  0.315E+00  0.969E-01
  -4.363  0.548E+00  0.153E+00  0.301E+00  0.945E-01
  -4.353  0.502E+00  0.118E+00  0.291E+00  0.922E-01
  -4.343  0.492E+00  0.118E+00  0.284E+00  0.901E-01
  -4.333  0.486E+00  0.116E+00  0.281E+00  0.891E-01
  -4.323  0.481E+00  0.113E+00  0.280E+00  0.886E-01
  -4.313  0.477E+00  0.108E+00  0.281E+00  0.884E-01
  -4.303  0.470E+00  0.103E+00  0.279E+00  0.880E-01
  -4.293  0.465E+00  0.982E-01  0.279E+00  0.880E-01
  -4.283  0.459E+00  0.939E-01  0.278E+00  0.878E-01
  -4.273  0.454E+00  0.902E-01  0.276E+00  0.874E-01
  -4.263  0.451E+00  0.870E-01  0.276E+00  0.876E-01
  -4.253  0.471E+00  0.913E-01  0.288E+00  0.915E-01
  -4.243  0.475E+00  0.897E-01  0.293E+00  0.932E-01
  -4.233  0.501E+00  0.879E-01  0.314E+00  0.991E-01
  -4.223  0.527E+00  0.863E-01  0.336E+00  0.105E+00
  -4.213  0.554E+00  0.848E-01  0.358E+00  0.112E+00
  -4.203  0.581E+00  0.835E-01  0.379E+00  0.118E+00
  -4.193  0.612E+00  0.822E-01  0.405E+00  0.125E+00
  -4.183  0.635E+00  0.811E-01  0.424E+00  0.130E+00
  -4.173  0.657E+00  0.801E-01  0.441E+00  0.136E+00
  -4.163  0.697E+00  0.790E-01  0.474E+00  0.145E+00
  -4.153  0.741E+00  0.777E-01  0.510E+00  0.154E+00
  -4.143  0.779E+00  0.762E-01  0.541E+00  0.162E+00
  -4.133  0.798E+00  0.744E-01  0.559E+00  0.164E+00
  -4.123  0.796E+00  0.724E-01  0.561E+00  0.163E+00
  -4.113  0.990E+00  0.707E-01  0.719E+00  0.201E+00
  -4.103  0.144E+01  0.748E-01  0.108E+01  0.290E+00
  -4.093  0.133E+01  0.818E-01  0.987E+00  0.261E+00
  -4.083  0.575E+00  0.888E-01  0.368E+00  0.119E+00
  -4.073  0.427E+00  0.920E-01  0.244E+00  0.909E-01
  -4.063  0.407E+00  0.915E-01  0.228E+00  0.874E-01
  -4.053  0.388E+00  0.873E-01  0.216E+00  0.849E-01
  -4.043  0.370E+00  0.794E-01  0.207E+00  0.834E-01
  -4.033  0.353E+00  0.678E-01  0.202E+00  0.828E-01
  -4.023  0.342E+00  0.677E-01  0.193E+00  0.807E-01
  -4.013  0.332E+00  0.685E-01  0.184E+00  0.785E-01
  -4.003  0.321E+00  0.693E-01  0.176E+00  0.763E-01
  -3.993  0.312E+00  0.699E-01  0.168E+00  0.740E-01
  -3.983  0.302E+00  0.704E-01  0.159E+00  0.717E-01
  -3.973  0.288E+00  0.709E-01  0.149E+00  0.681E-01
  -3.963  0.281E+00  0.712E-01  0.144E+00  0.665E-01
  -3.953  0.275E+00  0.715E-01  0.138E+00  0.652E-01
  -3.943  0.269E+00  0.716E-01  0.133E+00  0.638E-01
  -3.933  0.263E+00  0.717E-01  0.129E+00  0.623E-01
  -3.923  0.256E+00  0.717E-01  0.124E+00  0.609E-01
  -3.913  0.250E+00  0.715E-01  0.119E+00  0.593E-01
  -3.903  0.243E+00  0.713E-01  0.114E+00  0.576E-01
  -3.893  0.237E+00  0.710E-01  0.110E+00  0.559E-01
  -3.883  0.233E+00  0.706E-01  0.107E+00  0.552E-01
  -3.873  0.230E+00  0.701E-01  0.105E+00  0.548E-01
  -3.863  0.227E+00  0.695E-01  0.103E+00  0.543E-01
  -3.853  0.224E+00  0.688E-01  0.101E+00  0.539E-01
  -3.843  0.221E+00  0.680E-01  0.995E-01  0.536E-01
  -3.833  0.218E+00  0.671E-01  0.978E-01  0.532E-01
  -3.823  0.216E+00  0.663E-01  0.965E-01  0.529E-01
  -3.813  0.214E+00  0.656E-01  0.953E-01  0.527E-01
  -3.803  0.211E+00  0.648E-01  0.941E-01  0.525E-01
  -3.793  0.210E+00  0.643E-01  0.930E-01  0.523E-01
  -3.783  0.208E+00  0.638E-01  0.918E-01  0.520E-01
  -3.773  0.206E+00  0.634E-01  0.907E-01  0.517E-01
  -3.763  0.204E+00  0.629E-01  0.895E-01  0.514E-01
  -3.753  0.202E+00  0.625E-01  0.883E-01  0.511E-01
  -3.743  0.200E+00  0.620E-01  0.872E-01  0.508E-01
  -3.733  0.198E+00  0.615E-01  0.860E-01  0.505E-01
  -3.723  0.196E+00  0.611E-01  0.849E-01  0.502E-01
  -3.713  0.194E+00  0.606E-01  0.838E-01  0.499E-01
  -3.703  0.192E+00  0.602E-01  0.826E-01  0.495E-01
  -3.693  0.191E+00  0.597E-01  0.816E-01  0.492E-01
  -3.683  0.187E+00  0.575E-01  0.805E-01  0.489E-01
  -3.673  0.185E+00  0.573E-01  0.794E-01  0.485E-01
  -3.663  0.184E+00  0.570E-01  0.783E-01  0.482E-01
  -3.653  0.182E+00  0.568E-01  0.773E-01  0.478E-01
  -3.643  0.180E+00  0.566E-01  0.762E-01  0.475E-01
  -3.633  0.179E+00  0.564E-01  0.752E-01  0.471E-01
  -3.623  0.177E+00  0.561E-01  0.741E-01  0.467E-01
  -3.613  0.175E+00  0.559E-01  0.731E-01  0.463E-01
  -3.603  0.174E+00  0.557E-01  0.720E-01  0.459E-01
  -3.593  0.169E+00  0.555E-01  0.694E-01  0.445E-01
  -3.583  0.168E+00  0.552E-01  0.686E-01  0.442E-01
  -3.573  0.167E+00  0.550E-01  0.677E-01  0.439E-01
  -3.563  0.165E+00  0.548E-01  0.669E-01  0.436E-01
  -3.553  0.164E+00  0.545E-01  0.661E-01  0.433E-01
  -3.543  0.162E+00  0.542E-01  0.653E-01  0.430E-01
  -3.533  0.161E+00  0.539E-01  0.645E-01  0.427E-01
  -3.523  0.160E+00  0.537E-01  0.640E-01  0.426E-01
  -3.513  0.159E+00  0.534E-01  0.635E-01  0.424E-01
  -3.503  0.158E+00  0.531E-01  0.630E-01  0.423E-01
  -3.493  0.158E+00  0.528E-01  0.625E-01  0.422E-01
  -3.483  0.157E+00  0.526E-01  0.620E-01  0.421E-01
  -3.473  0.156E+00  0.523E-01  0.615E-01  0.420E-01
  -3.463  0.155E+00  0.520E-01  0.610E-01  0.419E-01
  -3.453  0.154E+00  0.518E-01  0.606E-01  0.417E-01
  -3.443  0.153E+00  0.515E-01  0.601E-01  0.416E-01
  -3.433  0.152E+00  0.512E-01  0.596E-01  0.415E-01
  -3.423  0.151E+00  0.509E-01  0.591E-01  0.414E-01
  -3.413  0.151E+00  0.507E-01  0.586E-01  0.412E-01
  -3.403  0.150E+00  0.504E-01  0.582E-01  0.411E-01
  -3.393  0.149E+00  0.501E-01  0.577E-01  0.410E-01
  -3.383  0.148E+00  0.499E-01  0.572E-01  0.408E-01
  -3.373  0.147E+00  0.496E-01  0.568E-01  0.407E-01
  -3.363  0.146E+00  0.492E-01  0.563E-01  0.405E-01
  -3.353  0.145E+00  0.486E-01  0.558E-01  0.404E-01
  -3.343  0.144E+00  0.481E-01  0.554E-01  0.402E-01
  -3.333  0.143E+00  0.476E-01  0.549E-01  0.401E-01
  -3.323  0.141E+00  0.470E-01  0.543E-01  0.399E-01
  -3.313  0.140E+00  0.465E-01  0.536E-01  0.395E-01
  -3.303  0.138E+00  0.459E-01  0.529E-01  0.392E-01
  -3.293  0.136E+00  0.454E-01  0.522E-01  0.389E-01
  -3.283  0.135E+00  0.448E-01  0.515E-01  0.385E-01
  -3.273  0.134E+00  0.446E-01  0.508E-01  0.382E-01
  -3.263  0.132E+00  0.444E-01  0.501E-01  0.378E-01
  -3.253  0.131E+00  0.443E-01  0.494E-01  0.375E-01
  -3.243  0.130E+00  0.441E-01  0.490E-01  0.373E-01
  -3.233  0.130E+00  0.439E-01  0.486E-01  0.372E-01
  -3.223  0.129E+00  0.437E-01  0.483E-01  0.371E-01
  -3.213  0.128E+00  0.435E-01  0.480E-01  0.370E-01
  -3.203  0.128E+00  0.433E-01  0.476E-01  0.369E-01
  -3.193  0.127E+00  0.431E-01  0.473E-01  0.368E-01
  -3.183  0.127E+00  0.430E-01  0.469E-01  0.367E-01
  -3.173  0.126E+00  0.428E-01  0.466E-01  0.366E-01
  -3.163  0.125E+00  0.426E-01  0.463E-01  0.365E-01
  -3.153  0.125E+00  0.424E-01  0.459E-01  0.364E-01
  -3.143  0.124E+00  0.422E-01  0.456E-01  0.363E-01
  -3.133  0.123E+00  0.420E-01  0.453E-01  0.361E-01
  -3.123  0.123E+00  0.418E-01  0.449E-01  0.360E-01
  -3.113  0.122E+00  0.417E-01  0.446E-01  0.359E-01
  -3.103  0.122E+00  0.415E-01  0.443E-01  0.358E-01
  -3.093  0.134E+00  0.546E-01  0.437E-01  0.354E-01
  -3.083  0.158E+00  0.789E-01  0.433E-01  0.353E-01
  -3.073  0.181E+00  0.103E+00  0.430E-01  0.352E-01
  -3.063  0.205E+00  0.127E+00  0.427E-01  0.351E-01
  -3.053  0.229E+00  0.152E+00  0.423E-01  0.349E-01
  -3.043  0.252E+00  0.176E+00  0.420E-01  0.348E-01
  -3.033  0.276E+00  0.200E+00  0.416E-01  0.347E-01
  -3.023  0.209E+00  0.133E+00  0.413E-01  0.345E-01
  -3.013  0.210E+00  0.134E+00  0.410E-01  0.344E-01
  -3.003  0.211E+00  0.136E+00  0.406E-01  0.342E-01
  -2.993  0.212E+00  0.137E+00  0.403E-01  0.341E-01
  -2.983  0.213E+00  0.139E+00  0.399E-01  0.339E-01
  -2.973  0.213E+00  0.140E+00  0.396E-01  0.338E-01
  -2.963  0.214E+00  0.141E+00  0.393E-01  0.336E-01
  -2.953  0.215E+00  0.143E+00  0.389E-01  0.335E-01
  -2.943  0.216E+00  0.144E+00  0.386E-01  0.333E-01
  -2.933  0.217E+00  0.146E+00  0.383E-01  0.332E-01
  -2.923  0.218E+00  0.147E+00  0.379E-01  0.330E-01
  -2.913  0.217E+00  0.149E+00  0.366E-01  0.321E-01
  -2.903  0.219E+00  0.151E+00  0.364E-01  0.320E-01
  -2.893  0.221E+00  0.153E+00  0.361E-01  0.319E-01
  -2.883  0.221E+00  0.153E+00  0.359E-01  0.318E-01
  -2.873  0.222E+00  0.155E+00  0.356E-01  0.317E-01
  -2.863  0.223E+00  0.156E+00  0.354E-01  0.316E-01
  -2.853  0.219E+00  0.153E+00  0.351E-01  0.315E-01
  -2.843  0.216E+00  0.150E+00  0.349E-01  0.314E-01
  -2.833  0.212E+00  0.147E+00  0.346E-01  0.313E-01
  -2.823  0.210E+00  0.144E+00  0.343E-01  0.312E-01
  -2.813  0.210E+00  0.145E+00  0.341E-01  0.311E-01
  -2.803  0.210E+00  0.145E+00  0.338E-01  0.310E-01
  -2.793  0.210E+00  0.145E+00  0.336E-01  0.309E-01
  -2.783  0.210E+00  0.145E+00  0.333E-01  0.308E-01
  -2.773  0.209E+00  0.146E+00  0.331E-01  0.307E-01
  -2.763  0.209E+00  0.146E+00  0.328E-01  0.306E-01
  -2.753  0.209E+00  0.146E+00  0.326E-01  0.305E-01
  -2.743  0.209E+00  0.146E+00  0.324E-01  0.304E-01
  -2.733  0.209E+00  0.147E+00  0.322E-01  0.304E-01
  -2.723  0.209E+00  0.147E+00  0.320E-01  0.303E-01
  -2.713  0.209E+00  0.147E+00  0.318E-01  0.302E-01
  -2.703  0.210E+00  0.148E+00  0.316E-01  0.302E-01
  -2.693  0.211E+00  0.149E+00  0.314E-01  0.301E-01
  -2.683  0.211E+00  0.150E+00  0.312E-01  0.301E-01
  -2.673  0.212E+00  0.151E+00  0.310E-01  0.300E-01
  -2.663  0.212E+00  0.151E+00  0.308E-01  0.299E-01
  -2.653  0.213E+00  0.152E+00  0.306E-01  0.299E-01
  -2.643  0.213E+00  0.153E+00  0.304E-01  0.298E-01
  -2.633  0.214E+00  0.154E+00  0.302E-01  0.297E-01
  -2.623  0.214E+00  0.155E+00  0.299E-01  0.295E-01
  -2.613  0.214E+00  0.155E+00  0.296E-01  0.293E-01
  -2.603  0.215E+00  0.156E+00  0.293E-01  0.292E-01
  -2.593  0.215E+00  0.157E+00  0.290E-01  0.290E-01
  -2.583  0.215E+00  0.158E+00  0.287E-01  0.288E-01
  -2.573  0.212E+00  0.155E+00  0.284E-01  0.286E-01
  -2.563  0.211E+00  0.155E+00  0.280E-01  0.285E-01
  -2.553  0.210E+00  0.154E+00  0.277E-01  0.283E-01
  -2.543  0.209E+00  0.154E+00  0.274E-01  0.281E-01
  -2.533  0.209E+00  0.153E+00  0.271E-01  0.279E-01
  -2.523  0.208E+00  0.153E+00  0.268E-01  0.277E-01
  -2.513  0.206E+00  0.152E+00  0.265E-01  0.275E-01
  -2.503  0.206E+00  0.152E+00  0.262E-01  0.273E-01
  -2.493  0.205E+00  0.152E+00  0.259E-01  0.271E-01
  -2.483  0.205E+00  0.152E+00  0.256E-01  0.269E-01
  -2.473  0.205E+00  0.153E+00  0.253E-01  0.267E-01
  -2.463  0.204E+00  0.153E+00  0.249E-01  0.265E-01
  -2.453  0.204E+00  0.153E+00  0.246E-01  0.263E-01
  -2.443  0.204E+00  0.153E+00  0.243E-01  0.261E-01
  -2.433  0.204E+00  0.154E+00  0.240E-01  0.258E-01
  -2.423  0.203E+00  0.154E+00  0.237E-01  0.256E-01
  -2.413  0.203E+00  0.154E+00  0.234E-01  0.254E-01
  -2.403  0.203E+00  0.155E+00  0.231E-01  0.252E-01
  -2.393  0.203E+00  0.155E+00  0.228E-01  0.250E-01
  -2.383  0.203E+00  0.156E+00  0.225E-01  0.247E-01
  -2.373  0.203E+00  0.156E+00  0.222E-01  0.245E-01
  -2.363  0.203E+00  0.157E+00  0.218E-01  0.243E-01
  -2.353  0.203E+00  0.157E+00  0.215E-01  0.240E-01
  -2.343  0.202E+00  0.157E+00  0.212E-01  0.238E-01
  -2.333  0.202E+00  0.158E+00  0.209E-01  0.235E-01
  -2.323  0.214E+00  0.158E+00  0.263E-01  0.298E-01
  -2.313  0.213E+00  0.159E+00  0.253E-01  0.288E-01
  -2.303  0.211E+00  0.159E+00  0.243E-01  0.278E-01
  -2.293  0.222E+00  0.159E+00  0.294E-01  0.337E-01
  -2.283  0.219E+00  0.160E+00  0.273E-01  0.315E-01
  -2.273  0.215E+00  0.160E+00  0.253E-01  0.294E-01
  -2.263  0.211E+00  0.161E+00  0.233E-01  0.272E-01
  -2.253  0.207E+00  0.161E+00  0.213E-01  0.250E-01
  -2.243  0.203E+00  0.161E+00  0.193E-01  0.227E-01
  -2.233  0.200E+00  0.162E+00  0.173E-01  0.205E-01
  -2.223  0.196E+00  0.162E+00  0.153E-01  0.182E-01
  -2.213  0.192E+00  0.162E+00  0.133E-01  0.159E-01
  -2.203  0.188E+00  0.163E+00  0.113E-01  0.136E-01
  -2.193  0.184E+00  0.163E+00  0.929E-02  0.112E-01
  -2.183  0.182E+00  0.166E+00  0.729E-02  0.887E-02
  -2.173  0.178E+00  0.166E+00  0.530E-02  0.648E-02
  -2.163  0.174E+00  0.167E+00  0.331E-02  0.407E-02
  -2.153  0.170E+00  0.167E+00  0.132E-02  0.163E-02
  -2.143  0.168E+00  0.168E+00  0.999E-14  0.466E-14
  -2.133  0.168E+00  0.168E+00  0.100E-13  0.458E-14
  -2.123  0.169E+00  0.169E+00  0.100E-13  0.453E-14
  -2.113  0.169E+00  0.169E+00  0.100E-13  0.448E-14
  -2.103  0.170E+00  0.170E+00  0.100E-13  0.443E-14
  -2.093  0.170E+00  0.170E+00  0.100E-13  0.437E-14
  -2.083  0.171E+00  0.171E+00  0.100E-13  0.431E-14
  -2.073  0.171E+00  0.171E+00  0.100E-13  0.425E-14
  -2.063  0.172E+00  0.172E+00  0.998E-14  0.418E-14
  -2.053  0.172E+00  0.172E+00  0.994E-14  0.411E-14
  -2.043  0.173E+00  0.173E+00  0.990E-14  0.403E-14
  -2.033  0.173E+00  0.173E+00  0.984E-14  0.395E-14
  -2.023  0.174E+00  0.174E+00  0.978E-14  0.387E-14
  -2.013  0.174E+00  0.174E+00  0.972E-14  0.378E-14
  -2.003  0.174E+00  0.174E+00  0.964E-14  0.369E-14
  -1.993  0.175E+00  0.175E+00  0.955E-14  0.359E-14
  -1.983  0.175E+00  0.175E+00  0.946E-14  0.349E-14
  -1.973  0.175E+00  0.175E+00  0.898E-14  0.332E-14
  -1.963  0.175E+00  0.175E+00  0.896E-14  0.324E-14
  -1.953  0.175E+00  0.175E+00  0.894E-14  0.317E-14
  -1.943  0.176E+00  0.176E+00  0.893E-14  0.310E-14
  -1.933  0.176E+00  0.176E+00  0.891E-14  0.303E-14
  -1.923  0.177E+00  0.177E+00  0.890E-14  0.296E-14
  -1.913  0.177E+00  0.177E+00  0.889E-14  0.290E-14
  -1.903  0.178E+00  0.178E+00  0.889E-14  0.284E-14
  -1.893  0.179E+00  0.179E+00  0.889E-14  0.278E-14
  -1.883  0.180E+00  0.180E+00  0.890E-14  0.273E-14
  -1.873  0.181E+00  0.181E+00  0.891E-14  0.267E-14
  -1.863  0.181E+00  0.181E+00  0.893E-14  0.263E-14
  -1.853  0.182E+00  0.182E+00  0.895E-14  0.259E-14
  -1.843  0.198E+00  0.198E+00  0.910E-14  0.258E-14
  -1.833  0.205E+00  0.205E+00  0.932E-14  0.261E-14
  -1.823  0.212E+00  0.212E+00  0.973E-14  0.266E-14
  -1.813  0.219E+00  0.219E+00  0.103E-13  0.275E-14
  -1.803  0.226E+00  0.226E+00  0.111E-13  0.288E-14
  -1.793  0.231E+00  0.231E+00  0.118E-13  0.298E-14
  -1.783  0.234E+00  0.234E+00  0.123E-13  0.307E-14
  -1.773  0.238E+00  0.238E+00  0.128E-13  0.316E-14
  -1.763  0.241E+00  0.241E+00  0.133E-13  0.325E-14
  -1.753  0.245E+00  0.245E+00  0.137E-13  0.335E-14
  -1.743  0.248E+00  0.248E+00  0.141E-13  0.344E-14
  -1.733  0.252E+00  0.252E+00  0.145E-13  0.353E-14
  -1.723  0.256E+00  0.256E+00  0.148E-13  0.363E-14
  -1.713  0.259E+00  0.259E+00  0.151E-13  0.372E-14
  -1.703  0.262E+00  0.262E+00  0.154E-13  0.381E-14
  -1.693  0.264E+00  0.264E+00  0.156E-13  0.390E-14
  -1.683  0.267E+00  0.267E+00  0.159E-13  0.399E-14
  -1.673  0.269E+00  0.269E+00  0.162E-13  0.408E-14
  -1.663  0.272E+00  0.272E+00  0.165E-13  0.418E-14
  -1.653  0.274E+00  0.274E+00  0.168E-13  0.427E-14
  -1.643  0.268E+00  0.268E+00  0.170E-13  0.434E-14
  -1.633  0.244E+00  0.244E+00  0.160E-13  0.421E-14
  -1.623  0.222E+00  0.222E+00  0.140E-13  0.389E-14
  -1.613  0.216E+00  0.216E+00  0.133E-13  0.379E-14
  -1.603  0.209E+00  0.209E+00  0.126E-13  0.369E-14
  -1.593  0.203E+00  0.203E+00  0.121E-13  0.360E-14
  -1.583  0.196E+00  0.196E+00  0.118E-13  0.350E-14
  -1.573  0.190E+00  0.190E+00  0.115E-13  0.342E-14
  -1.563  0.185E+00  0.185E+00  0.120E-13  0.374E-14
  -1.553  0.180E+00  0.180E+00  0.138E-13  0.471E-14
  -1.543  0.177E+00  0.177E+00  0.167E-13  0.634E-14
  -1.533  0.173E+00  0.173E+00  0.208E-13  0.860E-14
  -1.523  0.170E+00  0.170E+00  0.259E-13  0.115E-13
  -1.513  0.166E+00  0.166E+00  0.320E-13  0.150E-13
  -1.503  0.163E+00  0.163E+00  0.393E-13  0.192E-13
  -1.493  0.160E+00  0.160E+00  0.477E-13  0.240E-13
  -1.483  0.156E+00  0.156E+00  0.571E-13  0.294E-13
  -1.473  0.153E+00  0.153E+00  0.676E-13  0.355E-13
  -1.463  0.149E+00  0.149E+00  0.792E-13  0.422E-13
  -1.453  0.146E+00  0.146E+00  0.918E-13  0.495E-13
  -1.443  0.144E+00  0.144E+00  0.105E-12  0.572E-13
  -1.433  0.142E+00  0.142E+00  0.118E-12  0.644E-13
  -1.423  0.140E+00  0.140E+00  0.129E-12  0.710E-13
  -1.413  0.138E+00  0.138E+00  0.139E-12  0.770E-13
  -1.403  0.137E+00  0.137E+00  0.149E-12  0.823E-13
  -1.393  0.135E+00  0.135E+00  0.157E-12  0.871E-13
  -1.383  0.133E+00  0.133E+00  0.164E-12  0.909E-13
  -1.373  0.130E+00  0.130E+00  0.170E-12  0.934E-13
  -1.363  0.128E+00  0.128E+00  0.174E-12  0.946E-13
  -1.353  0.126E+00  0.126E+00  0.177E-12  0.944E-13
  -1.343  0.123E+00  0.123E+00  0.179E-12  0.930E-13
  -1.333  0.121E+00  0.121E+00  0.179E-12  0.902E-13
  -1.323  0.119E+00  0.119E+00  0.179E-12  0.862E-13
  -1.313  0.117E+00  0.117E+00  0.176E-12  0.808E-13
  -1.303  0.114E+00  0.114E+00  0.173E-12  0.742E-13
  -1.293  0.112E+00  0.112E+00  0.170E-12  0.676E-13
  -1.283  0.111E+00  0.111E+00  0.170E-12  0.625E-13
  -1.273  0.110E+00  0.110E+00  0.170E-12  0.577E-13
  -1.263  0.108E+00  0.108E+00  0.169E-12  0.531E-13
  -1.253  0.107E+00  0.107E+00  0.169E-12  0.489E-13
  -1.243  0.106E+00  0.106E+00  0.168E-12  0.449E-13
  -1.233  0.105E+00  0.105E+00  0.168E-12  0.411E-13
  -1.223  0.104E+00  0.104E+00  0.167E-12  0.377E-13
  -1.213  0.103E+00  0.103E+00  0.166E-12  0.344E-13
  -1.203  0.102E+00  0.102E+00  0.165E-12  0.315E-13
  -1.193  0.101E+00  0.101E+00  0.164E-12  0.288E-13
  -1.183  0.100E+00  0.100E+00  0.163E-12  0.264E-13
  -1.173  0.995E-01  0.995E-01  0.161E-12  0.243E-13
  -1.163  0.983E-01  0.983E-01  0.160E-12  0.224E-13
  -1.153  0.967E-01  0.967E-01  0.157E-12  0.212E-13
  -1.143  0.950E-01  0.950E-01  0.154E-12  0.210E-13
  -1.133  0.934E-01  0.934E-01  0.148E-12  0.215E-13
  -1.123  0.917E-01  0.917E-01  0.142E-12  0.230E-13
  -1.113  0.900E-01  0.900E-01  0.134E-12  0.253E-13
  -1.103  0.884E-01  0.884E-01  0.125E-12  0.284E-13
  -1.093  0.873E-01  0.873E-01  0.119E-12  0.321E-13
  -1.083  0.862E-01  0.862E-01  0.113E-12  0.356E-13
  -1.073  0.851E-01  0.851E-01  0.107E-12  0.389E-13
  -1.063  0.840E-01  0.840E-01  0.101E-12  0.420E-13
  -1.053  0.829E-01  0.829E-01  0.961E-13  0.449E-13
  -1.043  0.818E-01  0.818E-01  0.910E-13  0.476E-13
  -1.033  0.811E-01  0.811E-01  0.863E-13  0.502E-13
  -1.023  0.798E-01  0.798E-01  0.819E-13  0.526E-13
  -1.013  0.785E-01  0.785E-01  0.777E-13  0.549E-13
  -1.003  0.772E-01  0.772E-01  0.738E-13  0.569E-13
  -0.993  0.759E-01  0.759E-01  0.702E-13  0.587E-13
  -0.983  0.747E-01  0.747E-01  0.668E-13  0.603E-13
  -0.973  0.734E-01  0.734E-01  0.636E-13  0.617E-13
  -0.963  0.722E-01  0.722E-01  0.608E-13  0.629E-13
  -0.953  0.710E-01  0.710E-01  0.582E-13  0.640E-13
  -0.943  0.697E-01  0.697E-01  0.558E-13  0.648E-13
  -0.933  0.685E-01  0.685E-01  0.537E-13  0.654E-13
  -0.923  0.673E-01  0.673E-01  0.519E-13  0.658E-13
  -0.913  0.661E-01  0.661E-01  0.503E-13  0.661E-13
  -0.903  0.649E-01  0.649E-01  0.490E-13  0.661E-13
  -0.893  0.666E-01  0.666E-01  0.484E-13  0.661E-13
  -0.883  0.657E-01  0.657E-01  0.469E-13  0.648E-13
  -0.873  0.648E-01  0.648E-01  0.447E-13  0.619E-13
  -0.863  0.638E-01  0.638E-01  0.419E-13  0.577E-13
  -0.853  0.628E-01  0.628E-01  0.391E-13  0.536E-13
  -0.843  0.618E-01  0.618E-01  0.364E-13  0.496E-13
  -0.833  0.608E-01  0.608E-01  0.338E-13  0.457E-13
  -0.823  0.598E-01  0.598E-01  0.313E-13  0.420E-13
  -0.813  0.589E-01  0.589E-01  0.289E-13  0.385E-13
  -0.803  0.579E-01  0.579E-01  0.266E-13  0.352E-13
  -0.793  0.570E-01  0.570E-01  0.244E-13  0.320E-13
  -0.783  0.560E-01  0.560E-01  0.224E-13  0.289E-13
  -0.773  0.551E-01  0.551E-01  0.204E-13  0.260E-13
  -0.763  0.542E-01  0.542E-01  0.185E-13  0.233E-13
  -0.753  0.533E-01  0.533E-01  0.167E-13  0.207E-13
  -0.743  0.524E-01  0.524E-01  0.150E-13  0.183E-13
  -0.733  0.515E-01  0.515E-01  0.134E-13  0.160E-13
  -0.723  0.506E-01  0.506E-01  0.119E-13  0.140E-13
  -0.713  0.497E-01  0.497E-01  0.106E-13  0.120E-13
  -0.703  0.488E-01  0.488E-01  0.928E-14  0.102E-13
  -0.693  0.480E-01  0.480E-01  0.810E-14  0.861E-14
  -0.683  0.471E-01  0.471E-01  0.702E-14  0.715E-14
  -0.673  0.463E-01  0.463E-01  0.604E-14  0.584E-14
  -0.663  0.454E-01  0.454E-01  0.518E-14  0.472E-14
  -0.653  0.446E-01  0.446E-01  0.444E-14  0.380E-14
  -0.643  0.437E-01  0.437E-01  0.380E-14  0.304E-14
  -0.633  0.429E-01  0.429E-01  0.327E-14  0.244E-14
  -0.623  0.421E-01  0.421E-01  0.284E-14  0.200E-14
  -0.613  0.412E-01  0.412E-01  0.251E-14  0.173E-14
  -0.603  0.404E-01  0.404E-01  0.228E-14  0.161E-14
  -0.593  0.422E-01  0.422E-01  0.221E-14  0.163E-14
  -0.583  0.434E-01  0.434E-01  0.229E-14  0.170E-14
  -0.573  0.575E-01  0.575E-01  0.248E-14  0.182E-14
  -0.563  0.754E-01  0.754E-01  0.294E-14  0.198E-14
  -0.553  0.815E-01  0.815E-01  0.393E-14  0.235E-14
  -0.543  0.876E-01  0.876E-01  0.614E-14  0.330E-14
  -0.533  0.937E-01  0.937E-01  0.957E-14  0.481E-14
  -0.523  0.998E-01  0.998E-01  0.142E-13  0.688E-14
  -0.513  0.105E+00  0.105E+00  0.196E-13  0.921E-14
  -0.503  0.109E+00  0.109E+00  0.235E-13  0.107E-13
  -0.493  0.112E+00  0.112E+00  0.271E-13  0.120E-13
  -0.483  0.116E+00  0.116E+00  0.302E-13  0.130E-13
  -0.473  0.120E+00  0.120E+00  0.329E-13  0.138E-13
  -0.463  0.123E+00  0.123E+00  0.352E-13  0.144E-13
  -0.453  0.127E+00  0.127E+00  0.371E-13  0.147E-13
  -0.443  0.130E+00  0.130E+00  0.386E-13  0.147E-13
  -0.433  0.134E+00  0.134E+00  0.396E-13  0.146E-13
  -0.423  0.136E+00  0.136E+00  0.408E-13  0.145E-13
  -0.413  0.139E+00  0.139E+00  0.421E-13  0.145E-13
  -0.403  0.141E+00  0.141E+00  0.436E-13  0.146E-13
  -0.393  0.144E+00  0.144E+00  0.454E-13  0.147E-13
  -0.383  0.147E+00  0.147E+00  0.472E-13  0.150E-13
  -0.373  0.149E+00  0.149E+00  0.493E-13  0.154E-13
  -0.363  0.152E+00  0.152E+00  0.516E-13  0.159E-13
  -0.353  0.155E+00  0.155E+00  0.540E-13  0.164E-13
  -0.343  0.157E+00  0.157E+00  0.567E-13  0.171E-13
  -0.333  0.160E+00  0.160E+00  0.595E-13  0.178E-13
  -0.323  0.163E+00  0.163E+00  0.621E-13  0.192E-13
  -0.313  0.159E+00  0.159E+00  0.685E-13  0.244E-13
  -0.303  0.155E+00  0.155E+00  0.748E-13  0.296E-13
  -0.293  0.152E+00  0.152E+00  0.831E-13  0.350E-13
  -0.283  0.150E+00  0.150E+00  0.947E-13  0.410E-13
  -0.273  0.148E+00  0.148E+00  0.108E-12  0.472E-13
  -0.263  0.146E+00  0.146E+00  0.124E-12  0.537E-13
  -0.253  0.144E+00  0.144E+00  0.142E-12  0.606E-13
  -0.243  0.142E+00  0.142E+00  0.162E-12  0.677E-13
  -0.233  0.141E+00  0.141E+00  0.185E-12  0.752E-13
  -0.223  0.140E+00  0.140E+00  0.209E-12  0.829E-13
  -0.213  0.139E+00  0.139E+00  0.235E-12  0.909E-13
  -0.203  0.138E+00  0.138E+00  0.260E-12  0.986E-13
  -0.193  0.137E+00  0.137E+00  0.285E-12  0.106E-12
  -0.183  0.136E+00  0.136E+00  0.309E-12  0.113E-12
  -0.173  0.135E+00  0.135E+00  0.333E-12  0.120E-12
  -0.163  0.134E+00  0.134E+00  0.355E-12  0.126E-12
  -0.153  0.136E+00  0.136E+00  0.387E-12  0.145E-12
  -0.143  0.139E+00  0.139E+00  0.425E-12  0.174E-12
  -0.133  0.143E+00  0.143E+00  0.459E-12  0.200E-12
  -0.123  0.147E+00  0.147E+00  0.487E-12  0.222E-12
  -0.113  0.151E+00  0.151E+00  0.511E-12  0.240E-12
  -0.103  0.155E+00  0.155E+00  0.530E-12  0.255E-12
  -0.093  0.159E+00  0.159E+00  0.545E-12  0.267E-12
  -0.083  0.164E+00  0.164E+00  0.559E-12  0.277E-12
  -0.073  0.168E+00  0.168E+00  0.567E-12  0.285E-12
  -0.063  0.173E+00  0.173E+00  0.570E-12  0.291E-12
  -0.053  0.178E+00  0.178E+00  0.567E-12  0.295E-12
  -0.043  0.182E+00  0.182E+00  0.558E-12  0.296E-12
  -0.033  0.187E+00  0.187E+00  0.547E-12  0.297E-12
  -0.023  0.191E+00  0.191E+00  0.534E-12  0.296E-12
  -0.013  0.196E+00  0.196E+00  0.519E-12  0.295E-12
  -0.003  0.200E+00  0.200E+00  0.502E-12  0.292E-12
   0.007  0.269E+00  0.269E+00  0.715E-12  0.402E-12
   0.017  0.263E+00  0.263E+00  0.867E-12  0.448E-12
   0.027  0.256E+00  0.256E+00  0.998E-12  0.491E-12
   0.037  0.249E+00  0.249E+00  0.111E-11  0.529E-12
   0.047  0.243E+00  0.243E+00  0.120E-11  0.563E-12
   0.057  0.236E+00  0.236E+00  0.126E-11  0.594E-12
   0.067  0.229E+00  0.229E+00  0.131E-11  0.620E-12
   0.077  0.223E+00  0.223E+00  0.133E-11  0.642E-12
   0.087  0.217E+00  0.217E+00  0.134E-11  0.658E-12
   0.097  0.211E+00  0.211E+00  0.133E-11  0.668E-12
   0.107  0.205E+00  0.205E+00  0.130E-11  0.673E-12
   0.117  0.199E+00  0.199E+00  0.278E-04  0.430E-05
   0.127  0.222E+00  0.220E+00  0.147E-02  0.236E-03
   0.137  0.270E+00  0.266E+00  0.292E-02  0.485E-03
   0.147  0.159E+00  0.154E+00  0.436E-02  0.750E-03
   0.157  0.159E+00  0.152E+00  0.580E-02  0.103E-02
   0.167  0.158E+00  0.150E+00  0.723E-02  0.133E-02
   0.177  0.157E+00  0.147E+00  0.867E-02  0.164E-02
   0.187  0.156E+00  0.144E+00  0.101E-01  0.197E-02
   0.197  0.156E+00  0.142E+00  0.115E-01  0.232E-02
   0.207  0.155E+00  0.139E+00  0.130E-01  0.268E-02
   0.217  0.154E+00  0.137E+00  0.144E-01  0.306E-02
   0.227  0.154E+00  0.135E+00  0.158E-01  0.346E-02
   0.237  0.154E+00  0.133E+00  0.172E-01  0.387E-02
   0.247  0.154E+00  0.131E+00  0.186E-01  0.430E-02
   0.257  0.153E+00  0.129E+00  0.200E-01  0.475E-02
   0.267  0.153E+00  0.126E+00  0.214E-01  0.521E-02
   0.277  0.153E+00  0.124E+00  0.229E-01  0.569E-02
   0.287  0.146E+00  0.122E+00  0.190E-01  0.480E-02
   0.297  0.145E+00  0.121E+00  0.197E-01  0.507E-02
   0.307  0.144E+00  0.119E+00  0.204E-01  0.535E-02
   0.317  0.137E+00  0.117E+00  0.157E-01  0.424E-02
   0.327  0.135E+00  0.115E+00  0.159E-01  0.435E-02
   0.337  0.134E+00  0.113E+00  0.161E-01  0.447E-02
   0.347  0.132E+00  0.111E+00  0.163E-01  0.459E-02
   0.357  0.133E+00  0.112E+00  0.164E-01  0.471E-02
   0.367  0.145E+00  0.124E+00  0.166E-01  0.483E-02
   0.377  0.157E+00  0.135E+00  0.168E-01  0.496E-02
   0.387  0.169E+00  0.146E+00  0.170E-01  0.508E-02
   0.397  0.181E+00  0.158E+00  0.171E-01  0.521E-02
   0.407  0.193E+00  0.170E+00  0.173E-01  0.534E-02
   0.417  0.128E+00  0.105E+00  0.175E-01  0.547E-02
   0.427  0.127E+00  0.104E+00  0.177E-01  0.560E-02
   0.437  0.126E+00  0.102E+00  0.178E-01  0.573E-02
   0.447  0.125E+00  0.101E+00  0.180E-01  0.587E-02
   0.457  0.124E+00  0.100E+00  0.182E-01  0.600E-02
   0.467  0.124E+00  0.992E-01  0.184E-01  0.614E-02
   0.477  0.123E+00  0.981E-01  0.185E-01  0.627E-02
   0.487  0.123E+00  0.976E-01  0.187E-01  0.641E-02
   0.497  0.123E+00  0.980E-01  0.189E-01  0.656E-02
   0.507  0.124E+00  0.985E-01  0.190E-01  0.670E-02
   0.517  0.125E+00  0.989E-01  0.192E-01  0.684E-02
   0.527  0.126E+00  0.994E-01  0.194E-01  0.699E-02
   0.537  0.126E+00  0.998E-01  0.195E-01  0.713E-02
   0.547  0.127E+00  0.100E+00  0.197E-01  0.728E-02
   0.557  0.128E+00  0.101E+00  0.199E-01  0.744E-02
   0.567  0.129E+00  0.101E+00  0.201E-01  0.760E-02
   0.577  0.129E+00  0.101E+00  0.203E-01  0.776E-02
   0.587  0.130E+00  0.102E+00  0.205E-01  0.791E-02
   0.597  0.131E+00  0.102E+00  0.207E-01  0.807E-02
   0.607  0.132E+00  0.103E+00  0.209E-01  0.823E-02
   0.617  0.132E+00  0.103E+00  0.210E-01  0.839E-02
   0.627  0.133E+00  0.103E+00  0.212E-01  0.855E-02
   0.637  0.134E+00  0.104E+00  0.214E-01  0.870E-02
   0.647  0.135E+00  0.104E+00  0.216E-01  0.886E-02
   0.657  0.135E+00  0.104E+00  0.218E-01  0.901E-02
   0.667  0.136E+00  0.105E+00  0.219E-01  0.915E-02
   0.677  0.137E+00  0.105E+00  0.220E-01  0.928E-02
   0.687  0.155E+00  0.123E+00  0.221E-01  0.939E-02
   0.697  0.154E+00  0.122E+00  0.222E-01  0.947E-02
   0.707  0.154E+00  0.123E+00  0.221E-01  0.954E-02
   0.717  0.155E+00  0.123E+00  0.221E-01  0.959E-02
   0.727  0.155E+00  0.124E+00  0.221E-01  0.964E-02
   0.737  0.156E+00  0.124E+00  0.220E-01  0.967E-02
   0.747  0.156E+00  0.125E+00  0.219E-01  0.969E-02
   0.757  0.157E+00  0.125E+00  0.218E-01  0.970E-02
   0.767  0.157E+00  0.126E+00  0.217E-01  0.971E-02
   0.777  0.158E+00  0.127E+00  0.216E-01  0.969E-02
   0.787  0.159E+00  0.128E+00  0.214E-01  0.967E-02
   0.797  0.165E+00  0.134E+00  0.213E-01  0.966E-02
   0.807  0.138E+00  0.107E+00  0.211E-01  0.964E-02
   0.817  0.138E+00  0.108E+00  0.210E-01  0.964E-02
   0.827  0.138E+00  0.108E+00  0.208E-01  0.965E-02
   0.837  0.139E+00  0.108E+00  0.207E-01  0.967E-02
   0.847  0.139E+00  0.108E+00  0.207E-01  0.970E-02
   0.857  0.139E+00  0.108E+00  0.206E-01  0.974E-02
   0.867  0.139E+00  0.109E+00  0.206E-01  0.980E-02
   0.877  0.139E+00  0.109E+00  0.205E-01  0.986E-02
   0.887  0.139E+00  0.108E+00  0.205E-01  0.994E-02
   0.897  0.139E+00  0.108E+00  0.206E-01  0.100E-01
   0.907  0.139E+00  0.108E+00  0.206E-01  0.101E-01
   0.917  0.139E+00  0.108E+00  0.207E-01  0.102E-01
   0.927  0.139E+00  0.108E+00  0.208E-01  0.104E-01
   0.937  0.139E+00  0.107E+00  0.209E-01  0.105E-01
   0.947  0.139E+00  0.107E+00  0.210E-01  0.107E-01
   0.957  0.142E+00  0.107E+00  0.234E-01  0.120E-01
   0.967  0.142E+00  0.107E+00  0.233E-01  0.121E-01
   0.977  0.143E+00  0.107E+00  0.233E-01  0.121E-01
   0.987  0.143E+00  0.107E+00  0.233E-01  0.122E-01
   0.997  0.143E+00  0.107E+00  0.233E-01  0.122E-01
   1.007  0.143E+00  0.107E+00  0.233E-01  0.123E-01
   1.017  0.143E+00  0.107E+00  0.234E-01  0.124E-01
   1.027  0.143E+00  0.107E+00  0.235E-01  0.126E-01
   1.037  0.143E+00  0.106E+00  0.236E-01  0.127E-01
   1.047  0.143E+00  0.106E+00  0.238E-01  0.129E-01
   1.057  0.143E+00  0.106E+00  0.239E-01  0.130E-01
   1.067  0.142E+00  0.105E+00  0.241E-01  0.132E-01
   1.077  0.142E+00  0.104E+00  0.244E-01  0.134E-01
   1.087  0.142E+00  0.104E+00  0.246E-01  0.137E-01
   1.097  0.141E+00  0.103E+00  0.249E-01  0.139E-01
   1.107  0.141E+00  0.101E+00  0.252E-01  0.141E-01
   1.117  0.140E+00  0.999E-01  0.254E-01  0.143E-01
   1.127  0.161E+00  0.121E+00  0.256E-01  0.145E-01
   1.137  0.159E+00  0.117E+00  0.265E-01  0.152E-01
   1.147  0.156E+00  0.113E+00  0.273E-01  0.157E-01
   1.157  0.155E+00  0.110E+00  0.280E-01  0.162E-01
   1.167  0.154E+00  0.109E+00  0.287E-01  0.167E-01
   1.177  0.153E+00  0.107E+00  0.292E-01  0.171E-01
   1.187  0.150E+00  0.105E+00  0.277E-01  0.163E-01
   1.197  0.149E+00  0.105E+00  0.280E-01  0.166E-01
   1.207  0.149E+00  0.104E+00  0.282E-01  0.168E-01
   1.217  0.149E+00  0.103E+00  0.283E-01  0.170E-01
   1.227  0.149E+00  0.103E+00  0.285E-01  0.171E-01
   1.237  0.149E+00  0.104E+00  0.285E-01  0.172E-01
   1.247  0.150E+00  0.104E+00  0.286E-01  0.173E-01
   1.257  0.151E+00  0.105E+00  0.286E-01  0.174E-01
   1.267  0.152E+00  0.106E+00  0.286E-01  0.175E-01
   1.277  0.154E+00  0.108E+00  0.285E-01  0.175E-01
   1.287  0.155E+00  0.109E+00  0.284E-01  0.175E-01
   1.297  0.156E+00  0.110E+00  0.285E-01  0.176E-01
   1.307  0.158E+00  0.112E+00  0.288E-01  0.178E-01
   1.317  0.144E+00  0.967E-01  0.290E-01  0.181E-01
   1.327  0.146E+00  0.986E-01  0.293E-01  0.183E-01
   1.337  0.149E+00  0.100E+00  0.296E-01  0.186E-01
   1.347  0.151E+00  0.102E+00  0.299E-01  0.188E-01
   1.357  0.152E+00  0.103E+00  0.300E-01  0.190E-01
   1.367  0.152E+00  0.103E+00  0.302E-01  0.191E-01
   1.377  0.153E+00  0.103E+00  0.304E-01  0.193E-01
   1.387  0.153E+00  0.103E+00  0.305E-01  0.195E-01
   1.397  0.153E+00  0.103E+00  0.307E-01  0.197E-01
   1.407  0.154E+00  0.103E+00  0.309E-01  0.199E-01
   1.417  0.154E+00  0.103E+00  0.311E-01  0.201E-01
   1.427  0.154E+00  0.103E+00  0.312E-01  0.203E-01
   1.437  0.154E+00  0.102E+00  0.311E-01  0.202E-01
   1.447  0.153E+00  0.102E+00  0.309E-01  0.202E-01
   1.457  0.153E+00  0.102E+00  0.308E-01  0.202E-01
   1.467  0.152E+00  0.101E+00  0.307E-01  0.202E-01
   1.477  0.152E+00  0.101E+00  0.306E-01  0.202E-01
   1.487  0.151E+00  0.100E+00  0.305E-01  0.203E-01
   1.497  0.150E+00  0.996E-01  0.304E-01  0.204E-01
   1.507  0.150E+00  0.989E-01  0.304E-01  0.205E-01
   1.517  0.149E+00  0.981E-01  0.304E-01  0.206E-01
   1.527  0.148E+00  0.972E-01  0.304E-01  0.207E-01
   1.537  0.148E+00  0.962E-01  0.305E-01  0.209E-01
   1.547  0.147E+00  0.952E-01  0.306E-01  0.210E-01
   1.557  0.182E+00  0.130E+00  0.306E-01  0.212E-01
   1.567  0.178E+00  0.126E+00  0.307E-01  0.214E-01
   1.577  0.175E+00  0.123E+00  0.308E-01  0.216E-01
   1.587  0.171E+00  0.119E+00  0.309E-01  0.218E-01
   1.597  0.167E+00  0.114E+00  0.310E-01  0.220E-01
   1.607  0.163E+00  0.110E+00  0.310E-01  0.221E-01
   1.617  0.159E+00  0.106E+00  0.311E-01  0.223E-01
   1.627  0.155E+00  0.102E+00  0.311E-01  0.224E-01
   1.637  0.151E+00  0.979E-01  0.310E-01  0.225E-01
   1.647  0.148E+00  0.940E-01  0.310E-01  0.225E-01
   1.657  0.146E+00  0.928E-01  0.309E-01  0.225E-01
   1.667  0.146E+00  0.930E-01  0.308E-01  0.226E-01
   1.677  0.150E+00  0.933E-01  0.326E-01  0.240E-01
   1.687  0.151E+00  0.937E-01  0.327E-01  0.243E-01
   1.697  0.151E+00  0.940E-01  0.329E-01  0.245E-01
   1.707  0.152E+00  0.943E-01  0.331E-01  0.247E-01
   1.717  0.153E+00  0.946E-01  0.332E-01  0.249E-01
   1.727  0.153E+00  0.949E-01  0.334E-01  0.251E-01
   1.737  0.154E+00  0.951E-01  0.335E-01  0.253E-01
   1.747  0.155E+00  0.960E-01  0.336E-01  0.255E-01
   1.757  0.156E+00  0.970E-01  0.337E-01  0.256E-01
   1.767  0.158E+00  0.980E-01  0.338E-01  0.258E-01
   1.777  0.159E+00  0.990E-01  0.338E-01  0.259E-01
   1.787  0.160E+00  0.999E-01  0.338E-01  0.260E-01
   1.797  0.161E+00  0.101E+00  0.338E-01  0.261E-01
   1.807  0.162E+00  0.102E+00  0.338E-01  0.262E-01
   1.817  0.163E+00  0.103E+00  0.338E-01  0.263E-01
   1.827  0.164E+00  0.104E+00  0.338E-01  0.264E-01
   1.837  0.165E+00  0.105E+00  0.339E-01  0.265E-01
   1.847  0.166E+00  0.106E+00  0.339E-01  0.266E-01
   1.857  0.167E+00  0.107E+00  0.339E-01  0.267E-01
   1.867  0.168E+00  0.108E+00  0.339E-01  0.268E-01
   1.877  0.169E+00  0.109E+00  0.339E-01  0.269E-01
   1.887  0.171E+00  0.110E+00  0.340E-01  0.270E-01
   1.897  0.172E+00  0.110E+00  0.340E-01  0.271E-01
   1.907  0.173E+00  0.111E+00  0.340E-01  0.273E-01
   1.917  0.174E+00  0.112E+00  0.340E-01  0.274E-01
   1.927  0.175E+00  0.113E+00  0.341E-01  0.276E-01
   1.937  0.163E+00  0.101E+00  0.342E-01  0.277E-01
   1.947  0.164E+00  0.101E+00  0.345E-01  0.282E-01
   1.957  0.165E+00  0.102E+00  0.349E-01  0.286E-01
   1.967  0.166E+00  0.102E+00  0.352E-01  0.290E-01
   1.977  0.167E+00  0.102E+00  0.355E-01  0.294E-01
   1.987  0.168E+00  0.103E+00  0.358E-01  0.298E-01
   1.997  0.198E+00  0.132E+00  0.360E-01  0.303E-01
   2.007  0.195E+00  0.128E+00  0.364E-01  0.307E-01
   2.017  0.191E+00  0.123E+00  0.367E-01  0.313E-01
   2.027  0.188E+00  0.119E+00  0.371E-01  0.318E-01
   2.037  0.185E+00  0.115E+00  0.374E-01  0.324E-01
   2.047  0.182E+00  0.111E+00  0.378E-01  0.330E-01
   2.057  0.180E+00  0.108E+00  0.382E-01  0.337E-01
   2.067  0.175E+00  0.104E+00  0.377E-01  0.335E-01
   2.077  0.170E+00  0.996E-01  0.374E-01  0.334E-01
   2.087  0.165E+00  0.950E-01  0.371E-01  0.334E-01
   2.097  0.161E+00  0.903E-01  0.369E-01  0.334E-01
   2.107  0.158E+00  0.878E-01  0.367E-01  0.335E-01
   2.117  0.157E+00  0.865E-01  0.367E-01  0.337E-01
   2.127  0.156E+00  0.859E-01  0.367E-01  0.339E-01
   2.137  0.156E+00  0.853E-01  0.366E-01  0.341E-01
   2.147  0.156E+00  0.848E-01  0.366E-01  0.343E-01
   2.157  0.155E+00  0.842E-01  0.366E-01  0.345E-01
   2.167  0.155E+00  0.837E-01  0.365E-01  0.346E-01
   2.177  0.155E+00  0.832E-01  0.365E-01  0.348E-01
   2.187  0.154E+00  0.827E-01  0.365E-01  0.350E-01
   2.197  0.154E+00  0.822E-01  0.364E-01  0.351E-01
   2.207  0.153E+00  0.818E-01  0.364E-01  0.353E-01
   2.217  0.158E+00  0.813E-01  0.389E-01  0.382E-01
   2.227  0.159E+00  0.810E-01  0.390E-01  0.386E-01
   2.237  0.159E+00  0.807E-01  0.391E-01  0.390E-01
   2.247  0.159E+00  0.806E-01  0.393E-01  0.393E-01
   2.257  0.160E+00  0.805E-01  0.394E-01  0.396E-01
   2.267  0.160E+00  0.806E-01  0.394E-01  0.399E-01
   2.277  0.160E+00  0.807E-01  0.395E-01  0.401E-01
   2.287  0.161E+00  0.810E-01  0.395E-01  0.403E-01
   2.297  0.161E+00  0.814E-01  0.395E-01  0.405E-01
   2.307  0.162E+00  0.818E-01  0.395E-01  0.407E-01
   2.317  0.163E+00  0.824E-01  0.394E-01  0.408E-01
   2.327  0.163E+00  0.831E-01  0.394E-01  0.409E-01
   2.337  0.164E+00  0.839E-01  0.393E-01  0.410E-01
   2.347  0.165E+00  0.848E-01  0.392E-01  0.411E-01
   2.357  0.166E+00  0.858E-01  0.391E-01  0.411E-01
   2.367  0.167E+00  0.869E-01  0.390E-01  0.411E-01
   2.377  0.168E+00  0.881E-01  0.389E-01  0.411E-01
   2.387  0.170E+00  0.894E-01  0.389E-01  0.414E-01
   2.397  0.172E+00  0.910E-01  0.391E-01  0.419E-01
   2.407  0.174E+00  0.928E-01  0.393E-01  0.424E-01
   2.417  0.177E+00  0.949E-01  0.393E-01  0.428E-01
   2.427  0.181E+00  0.972E-01  0.401E-01  0.438E-01
   2.437  0.185E+00  0.998E-01  0.405E-01  0.447E-01
   2.447  0.189E+00  0.103E+00  0.406E-01  0.453E-01
   2.457  0.241E+00  0.154E+00  0.407E-01  0.459E-01
   2.467  0.245E+00  0.157E+00  0.408E-01  0.468E-01
   2.477  0.248E+00  0.159E+00  0.410E-01  0.479E-01
   2.487  0.250E+00  0.160E+00  0.410E-01  0.488E-01
   2.497  0.245E+00  0.156E+00  0.404E-01  0.490E-01
   2.507  0.235E+00  0.146E+00  0.398E-01  0.491E-01
   2.517  0.225E+00  0.137E+00  0.392E-01  0.490E-01
   2.527  0.216E+00  0.128E+00  0.385E-01  0.488E-01
   2.537  0.208E+00  0.122E+00  0.378E-01  0.485E-01
   2.547  0.204E+00  0.119E+00  0.370E-01  0.480E-01
   2.557  0.208E+00  0.117E+00  0.384E-01  0.521E-01
   2.567  0.205E+00  0.115E+00  0.377E-01  0.518E-01
   2.577  0.202E+00  0.113E+00  0.371E-01  0.516E-01
   2.587  0.199E+00  0.111E+00  0.365E-01  0.514E-01
   2.597  0.197E+00  0.110E+00  0.359E-01  0.513E-01
   2.607  0.195E+00  0.108E+00  0.354E-01  0.513E-01
   2.617  0.193E+00  0.107E+00  0.350E-01  0.513E-01
   2.627  0.191E+00  0.105E+00  0.345E-01  0.513E-01
   2.637  0.188E+00  0.103E+00  0.342E-01  0.514E-01
   2.647  0.186E+00  0.101E+00  0.339E-01  0.517E-01
   2.657  0.186E+00  0.986E-01  0.339E-01  0.531E-01
   2.667  0.185E+00  0.970E-01  0.340E-01  0.544E-01
   2.677  0.185E+00  0.958E-01  0.341E-01  0.556E-01
   2.687  0.186E+00  0.951E-01  0.341E-01  0.568E-01
   2.697  0.187E+00  0.949E-01  0.341E-01  0.578E-01
   2.707  0.188E+00  0.950E-01  0.340E-01  0.588E-01
   2.717  0.189E+00  0.956E-01  0.340E-01  0.598E-01
   2.727  0.199E+00  0.976E-01  0.354E-01  0.657E-01
   2.737  0.205E+00  0.101E+00  0.357E-01  0.685E-01
   2.747  0.212E+00  0.105E+00  0.358E-01  0.709E-01
   2.757  0.219E+00  0.111E+00  0.358E-01  0.731E-01
   2.767  0.229E+00  0.118E+00  0.358E-01  0.757E-01
   2.777  0.287E+00  0.182E+00  0.339E-01  0.713E-01
   2.787  0.267E+00  0.167E+00  0.325E-01  0.678E-01
   2.797  0.248E+00  0.153E+00  0.311E-01  0.638E-01
   2.807  0.229E+00  0.140E+00  0.297E-01  0.593E-01
   2.817  0.212E+00  0.130E+00  0.283E-01  0.543E-01
   2.827  0.202E+00  0.121E+00  0.276E-01  0.534E-01
   2.837  0.193E+00  0.113E+00  0.270E-01  0.526E-01
   2.847  0.185E+00  0.107E+00  0.262E-01  0.516E-01
   2.857  0.179E+00  0.103E+00  0.255E-01  0.503E-01
   2.867  0.174E+00  0.100E+00  0.246E-01  0.489E-01
   2.877  0.171E+00  0.989E-01  0.239E-01  0.478E-01
   2.887  0.169E+00  0.978E-01  0.235E-01  0.476E-01
   2.897  0.167E+00  0.966E-01  0.232E-01  0.475E-01
   2.907  0.166E+00  0.953E-01  0.229E-01  0.474E-01
   2.917  0.156E+00  0.938E-01  0.213E-01  0.404E-01
   2.927  0.154E+00  0.923E-01  0.211E-01  0.403E-01
   2.937  0.152E+00  0.906E-01  0.208E-01  0.402E-01
   2.947  0.150E+00  0.896E-01  0.206E-01  0.401E-01
   2.957  0.150E+00  0.894E-01  0.204E-01  0.400E-01
   2.967  0.149E+00  0.890E-01  0.202E-01  0.400E-01
   2.977  0.149E+00  0.885E-01  0.203E-01  0.403E-01
   2.987  0.150E+00  0.879E-01  0.208E-01  0.411E-01
   2.997  0.150E+00  0.871E-01  0.213E-01  0.418E-01
   3.007  0.150E+00  0.862E-01  0.217E-01  0.423E-01
   3.017  0.150E+00  0.852E-01  0.222E-01  0.429E-01
   3.027  0.151E+00  0.841E-01  0.229E-01  0.437E-01
   3.037  0.152E+00  0.828E-01  0.238E-01  0.448E-01
   3.047  0.152E+00  0.815E-01  0.249E-01  0.460E-01
   3.057  0.152E+00  0.800E-01  0.253E-01  0.466E-01
   3.067  0.151E+00  0.792E-01  0.252E-01  0.462E-01
   3.077  0.151E+00  0.787E-01  0.254E-01  0.464E-01
   3.087  0.150E+00  0.782E-01  0.257E-01  0.466E-01
   3.097  0.150E+00  0.777E-01  0.259E-01  0.466E-01
   3.107  0.150E+00  0.771E-01  0.261E-01  0.466E-01
   3.117  0.149E+00  0.765E-01  0.264E-01  0.466E-01
   3.127  0.149E+00  0.759E-01  0.266E-01  0.464E-01
   3.137  0.149E+00  0.752E-01  0.269E-01  0.464E-01
   3.147  0.148E+00  0.747E-01  0.274E-01  0.463E-01
   3.157  0.152E+00  0.742E-01  0.288E-01  0.489E-01
   3.167  0.158E+00  0.739E-01  0.311E-01  0.535E-01
   3.177  0.156E+00  0.733E-01  0.311E-01  0.516E-01
   3.187  0.153E+00  0.727E-01  0.309E-01  0.497E-01
   3.197  0.151E+00  0.722E-01  0.307E-01  0.482E-01
   3.207  0.149E+00  0.718E-01  0.304E-01  0.464E-01
   3.217  0.146E+00  0.715E-01  0.303E-01  0.446E-01
   3.227  0.144E+00  0.713E-01  0.302E-01  0.425E-01
   3.237  0.142E+00  0.712E-01  0.301E-01  0.404E-01
   3.247  0.139E+00  0.712E-01  0.300E-01  0.381E-01
   3.257  0.138E+00  0.700E-01  0.316E-01  0.361E-01
   3.267  0.133E+00  0.679E-01  0.314E-01  0.335E-01
   3.277  0.142E+00  0.664E-01  0.403E-01  0.349E-01
   3.287  0.133E+00  0.640E-01  0.358E-01  0.327E-01
   3.297  0.123E+00  0.620E-01  0.313E-01  0.299E-01
   3.307  0.113E+00  0.600E-01  0.269E-01  0.264E-01
   3.317  0.103E+00  0.581E-01  0.227E-01  0.225E-01
   3.327  0.989E-01  0.563E-01  0.213E-01  0.212E-01
   3.337  0.976E-01  0.545E-01  0.214E-01  0.216E-01
   3.347  0.965E-01  0.528E-01  0.216E-01  0.221E-01
   3.357  0.955E-01  0.511E-01  0.217E-01  0.226E-01
   3.367  0.946E-01  0.495E-01  0.219E-01  0.232E-01
   3.377  0.938E-01  0.479E-01  0.220E-01  0.238E-01
   3.387  0.931E-01  0.464E-01  0.222E-01  0.245E-01
   3.397  0.924E-01  0.450E-01  0.223E-01  0.252E-01
   3.407  0.919E-01  0.436E-01  0.224E-01  0.259E-01
   3.417  0.915E-01  0.423E-01  0.226E-01  0.267E-01
   3.427  0.917E-01  0.410E-01  0.230E-01  0.277E-01
   3.437  0.920E-01  0.397E-01  0.235E-01  0.287E-01
   3.447  0.923E-01  0.385E-01  0.240E-01  0.298E-01
   3.457  0.934E-01  0.373E-01  0.249E-01  0.313E-01
   3.467  0.952E-01  0.361E-01  0.260E-01  0.331E-01
   3.477  0.986E-01  0.349E-01  0.280E-01  0.357E-01
   3.487  0.105E+00  0.338E-01  0.316E-01  0.395E-01
   3.497  0.112E+00  0.327E-01  0.357E-01  0.431E-01
   3.507  0.119E+00  0.319E-01  0.402E-01  0.465E-01
   3.517  0.126E+00  0.312E-01  0.452E-01  0.498E-01
   3.527  0.118E+00  0.311E-01  0.398E-01  0.467E-01
   3.537  0.110E+00  0.321E-01  0.346E-01  0.433E-01
   3.547  0.109E+00  0.338E-01  0.327E-01  0.424E-01
   3.557  0.110E+00  0.359E-01  0.316E-01  0.422E-01
   3.567  0.111E+00  0.384E-01  0.304E-01  0.421E-01
   3.577  0.112E+00  0.412E-01  0.292E-01  0.419E-01
   3.587  0.107E+00  0.377E-01  0.279E-01  0.418E-01
   3.597  0.106E+00  0.394E-01  0.259E-01  0.410E-01
   3.607  0.103E+00  0.410E-01  0.230E-01  0.394E-01
   3.617  0.100E+00  0.425E-01  0.203E-01  0.375E-01
   3.627  0.971E-01  0.439E-01  0.178E-01  0.353E-01
   3.637  0.881E-01  0.453E-01  0.126E-01  0.302E-01
   3.647  0.887E-01  0.466E-01  0.123E-01  0.298E-01
   3.657  0.878E-01  0.478E-01  0.117E-01  0.284E-01
   3.667  0.854E-01  0.489E-01  0.105E-01  0.260E-01
   3.677  0.813E-01  0.495E-01  0.902E-02  0.228E-01
   3.687  0.780E-01  0.497E-01  0.794E-02  0.204E-01
   3.697  0.744E-01  0.492E-01  0.700E-02  0.182E-01
   3.707  0.703E-01  0.482E-01  0.617E-02  0.159E-01
   3.717  0.657E-01  0.467E-01  0.544E-02  0.136E-01
   3.727  0.607E-01  0.446E-01  0.481E-02  0.113E-01
   3.737  0.552E-01  0.420E-01  0.429E-02  0.894E-02
   3.747  0.492E-01  0.388E-01  0.387E-02  0.656E-02
   3.757  0.443E-01  0.350E-01  0.358E-02  0.575E-02
   3.767  0.413E-01  0.324E-01  0.337E-02  0.550E-02
   3.777  0.402E-01  0.318E-01  0.318E-02  0.526E-02
   3.787  0.391E-01  0.311E-01  0.300E-02  0.504E-02
   3.797  0.381E-01  0.304E-01  0.285E-02  0.483E-02
   3.807  0.371E-01  0.298E-01  0.271E-02  0.463E-02
   3.817  0.362E-01  0.291E-01  0.259E-02  0.445E-02
   3.827  0.353E-01  0.285E-01  0.249E-02  0.428E-02
   3.837  0.344E-01  0.279E-01  0.240E-02  0.411E-02
   3.847  0.337E-01  0.272E-01  0.240E-02  0.409E-02
   3.857  0.332E-01  0.266E-01  0.243E-02  0.413E-02
   3.867  0.326E-01  0.260E-01  0.245E-02  0.417E-02
   3.877  0.320E-01  0.253E-01  0.247E-02  0.420E-02
   3.887  0.314E-01  0.247E-01  0.248E-02  0.424E-02
   3.897  0.309E-01  0.241E-01  0.248E-02  0.427E-02
   3.907  0.303E-01  0.235E-01  0.248E-02  0.431E-02
   3.917  0.297E-01  0.229E-01  0.247E-02  0.434E-02
   3.927  0.291E-01  0.223E-01  0.246E-02  0.438E-02
   3.937  0.285E-01  0.217E-01  0.244E-02  0.441E-02
   3.947  0.279E-01  0.211E-01  0.241E-02  0.444E-02
   3.957  0.273E-01  0.205E-01  0.238E-02  0.447E-02
   3.967  0.267E-01  0.199E-01  0.235E-02  0.450E-02
   3.977  0.261E-01  0.193E-01  0.231E-02  0.453E-02
   3.987  0.255E-01  0.187E-01  0.226E-02  0.456E-02
   3.997  0.249E-01  0.181E-01  0.220E-02  0.458E-02
   4.007  0.243E-01  0.175E-01  0.215E-02  0.461E-02
   4.017  0.326E-01  0.184E-01  0.500E-02  0.921E-02
   4.027  0.323E-01  0.193E-01  0.436E-02  0.862E-02
   4.037  0.317E-01  0.199E-01  0.376E-02  0.802E-02
   4.047  0.307E-01  0.200E-01  0.321E-02  0.741E-02
   4.057  0.293E-01  0.198E-01  0.270E-02  0.679E-02
   4.067  0.276E-01  0.192E-01  0.223E-02  0.616E-02
   4.077  0.256E-01  0.182E-01  0.181E-02  0.552E-02
   4.087  0.231E-01  0.168E-01  0.143E-02  0.487E-02
   4.097  0.204E-01  0.151E-01  0.110E-02  0.421E-02
   4.107  0.173E-01  0.129E-01  0.807E-03  0.354E-02
   4.117  0.138E-01  0.104E-01  0.561E-03  0.287E-02
   4.127  0.100E-01  0.750E-02  0.358E-03  0.218E-02
   4.137  0.589E-02  0.420E-02  0.200E-03  0.148E-02
   4.147  0.138E-02  0.521E-03  0.848E-04  0.778E-03
   4.157  0.533E-04  0.475E-12  0.453E-05  0.488E-04
   4.167  0.000E+00  0.000E+00  0.000E+00  0.000E+00
