# E (eV)   ldos(E)   pdos(E)   
 -17.719  0.000E+00  0.000E+00
 -17.709  0.147E+00  0.147E+00
 -17.699  0.292E+00  0.292E+00
 -17.689  0.161E+00  0.161E+00
 -17.679  0.172E+00  0.172E+00
 -17.669  0.183E+00  0.183E+00
 -17.659  0.194E+00  0.194E+00
 -17.649  0.182E+00  0.182E+00
 -17.639  0.167E+00  0.167E+00
 -17.629  0.167E+00  0.167E+00
 -17.619  0.170E+00  0.170E+00
 -17.609  0.173E+00  0.173E+00
 -17.599  0.176E+00  0.176E+00
 -17.589  0.180E+00  0.180E+00
 -17.579  0.183E+00  0.183E+00
 -17.569  0.169E+00  0.169E+00
 -17.559  0.167E+00  0.167E+00
 -17.549  0.166E+00  0.166E+00
 -17.539  0.164E+00  0.164E+00
 -17.529  0.165E+00  0.165E+00
 -17.519  0.166E+00  0.166E+00
 -17.509  0.168E+00  0.168E+00
 -17.499  0.169E+00  0.169E+00
 -17.489  0.170E+00  0.170E+00
 -17.479  0.172E+00  0.172E+00
 -17.469  0.168E+00  0.168E+00
 -17.459  0.163E+00  0.163E+00
 -17.449  0.161E+00  0.161E+00
 -17.439  0.161E+00  0.161E+00
 -17.429  0.161E+00  0.161E+00
 -17.419  0.161E+00  0.161E+00
 -17.409  0.161E+00  0.161E+00
 -17.399  0.161E+00  0.161E+00
 -17.389  0.161E+00  0.161E+00
 -17.379  0.162E+00  0.162E+00
 -17.369  0.163E+00  0.163E+00
 -17.359  0.163E+00  0.163E+00
 -17.349  0.164E+00  0.164E+00
 -17.339  0.165E+00  0.165E+00
 -17.329  0.160E+00  0.160E+00
 -17.319  0.159E+00  0.159E+00
 -17.309  0.158E+00  0.158E+00
 -17.299  0.157E+00  0.157E+00
 -17.289  0.157E+00  0.157E+00
 -17.279  0.157E+00  0.157E+00
 -17.269  0.158E+00  0.158E+00
 -17.259  0.158E+00  0.158E+00
 -17.249  0.158E+00  0.158E+00
 -17.239  0.158E+00  0.158E+00
 -17.229  0.159E+00  0.159E+00
 -17.219  0.159E+00  0.159E+00
 -17.209  0.160E+00  0.160E+00
 -17.199  0.160E+00  0.160E+00
 -17.189  0.161E+00  0.161E+00
 -17.179  0.160E+00  0.160E+00
 -17.169  0.158E+00  0.158E+00
 -17.159  0.158E+00  0.158E+00
 -17.149  0.158E+00  0.158E+00
 -17.139  0.158E+00  0.158E+00
 -17.129  0.158E+00  0.158E+00
 -17.119  0.158E+00  0.158E+00
 -17.109  0.158E+00  0.158E+00
 -17.099  0.159E+00  0.159E+00
 -17.089  0.160E+00  0.160E+00
 -17.079  0.160E+00  0.160E+00
 -17.069  0.161E+00  0.161E+00
 -17.059  0.162E+00  0.162E+00
 -17.049  0.162E+00  0.162E+00
 -17.039  0.163E+00  0.163E+00
 -17.029  0.163E+00  0.163E+00
 -17.019  0.164E+00  0.164E+00
 -17.009  0.165E+00  0.165E+00
 -16.999  0.165E+00  0.165E+00
 -16.989  0.165E+00  0.165E+00
 -16.979  0.166E+00  0.166E+00
 -16.969  0.167E+00  0.167E+00
 -16.959  0.168E+00  0.168E+00
 -16.949  0.169E+00  0.169E+00
 -16.939  0.171E+00  0.171E+00
 -16.929  0.172E+00  0.172E+00
 -16.919  0.173E+00  0.173E+00
 -16.909  0.176E+00  0.176E+00
 -16.899  0.178E+00  0.178E+00
 -16.889  0.181E+00  0.181E+00
 -16.879  0.184E+00  0.184E+00
 -16.869  0.187E+00  0.187E+00
 -16.859  0.190E+00  0.190E+00
 -16.849  0.192E+00  0.192E+00
 -16.839  0.195E+00  0.195E+00
 -16.829  0.201E+00  0.201E+00
 -16.819  0.208E+00  0.208E+00
 -16.809  0.214E+00  0.214E+00
 -16.799  0.220E+00  0.220E+00
 -16.789  0.229E+00  0.229E+00
 -16.779  0.238E+00  0.238E+00
 -16.769  0.259E+00  0.259E+00
 -16.759  0.283E+00  0.283E+00
 -16.749  0.480E+00  0.480E+00
 -16.739  0.232E+00  0.232E+00
 -16.729  0.216E+00  0.216E+00
 -16.719  0.200E+00  0.200E+00
 -16.709  0.185E+00  0.185E+00
 -16.699  0.169E+00  0.169E+00
 -16.689  0.153E+00  0.153E+00
 -16.679  0.138E+00  0.138E+00
 -16.669  0.140E+00  0.140E+00
 -16.659  0.143E+00  0.143E+00
 -16.649  0.146E+00  0.146E+00
 -16.639  0.148E+00  0.148E+00
 -16.629  0.151E+00  0.151E+00
 -16.619  0.100E+00  0.100E+00
 -16.609  0.103E+00  0.103E+00
 -16.599  0.103E+00  0.103E+00
 -16.589  0.985E-01  0.985E-01
 -16.579  0.939E-01  0.939E-01
 -16.569  0.893E-01  0.893E-01
 -16.559  0.848E-01  0.848E-01
 -16.549  0.802E-01  0.802E-01
 -16.539  0.757E-01  0.757E-01
 -16.529  0.712E-01  0.712E-01
 -16.519  0.668E-01  0.668E-01
 -16.509  0.623E-01  0.623E-01
 -16.499  0.578E-01  0.578E-01
 -16.489  0.534E-01  0.534E-01
 -16.479  0.496E-01  0.496E-01
 -16.469  0.499E-01  0.499E-01
 -16.459  0.501E-01  0.501E-01
 -16.449  0.502E-01  0.502E-01
 -16.439  0.504E-01  0.504E-01
 -16.429  0.506E-01  0.506E-01
 -16.419  0.508E-01  0.508E-01
 -16.409  0.510E-01  0.510E-01
 -16.399  0.000E+00  0.000E+00
 -16.389  0.000E+00  0.000E+00
 -16.379  0.000E+00  0.000E+00
 -16.369  0.000E+00  0.000E+00
 -16.359  0.000E+00  0.000E+00
 -16.349  0.000E+00  0.000E+00
 -16.339  0.000E+00  0.000E+00
 -16.329  0.000E+00  0.000E+00
 -16.319  0.000E+00  0.000E+00
 -16.309  0.000E+00  0.000E+00
 -16.299  0.000E+00  0.000E+00
 -16.289  0.000E+00  0.000E+00
 -16.279  0.000E+00  0.000E+00
 -16.269  0.000E+00  0.000E+00
 -16.259  0.000E+00  0.000E+00
 -16.249  0.000E+00  0.000E+00
 -16.239  0.000E+00  0.000E+00
 -16.229  0.000E+00  0.000E+00
 -16.219  0.000E+00  0.000E+00
 -16.209  0.000E+00  0.000E+00
 -16.199  0.000E+00  0.000E+00
 -16.189  0.000E+00  0.000E+00
 -16.179  0.000E+00  0.000E+00
 -16.169  0.000E+00  0.000E+00
 -16.159  0.000E+00  0.000E+00
 -16.149  0.538E-01  0.538E-01
 -16.139  0.522E-01  0.522E-01
 -16.129  0.507E-01  0.507E-01
 -16.119  0.492E-01  0.492E-01
 -16.109  0.477E-01  0.477E-01
 -16.099  0.462E-01  0.462E-01
 -16.089  0.448E-01  0.448E-01
 -16.079  0.440E-01  0.440E-01
 -16.069  0.487E-01  0.487E-01
 -16.059  0.534E-01  0.534E-01
 -16.049  0.581E-01  0.581E-01
 -16.039  0.627E-01  0.627E-01
 -16.029  0.673E-01  0.673E-01
 -16.019  0.718E-01  0.718E-01
 -16.009  0.764E-01  0.764E-01
 -15.999  0.808E-01  0.808E-01
 -15.989  0.853E-01  0.853E-01
 -15.979  0.897E-01  0.897E-01
 -15.969  0.941E-01  0.941E-01
 -15.959  0.984E-01  0.984E-01
 -15.949  0.293E+00  0.293E+00
 -15.939  0.142E+00  0.142E+00
 -15.929  0.113E+00  0.113E+00
 -15.919  0.129E+00  0.129E+00
 -15.909  0.146E+00  0.146E+00
 -15.899  0.202E+00  0.202E+00
 -15.889  0.276E+00  0.276E+00
 -15.879  0.350E+00  0.350E+00
 -15.869  0.185E+00  0.185E+00
 -15.859  0.177E+00  0.177E+00
 -15.849  0.169E+00  0.169E+00
 -15.839  0.161E+00  0.161E+00
 -15.829  0.154E+00  0.154E+00
 -15.819  0.146E+00  0.146E+00
 -15.809  0.138E+00  0.138E+00
 -15.799  0.133E+00  0.133E+00
 -15.789  0.128E+00  0.128E+00
 -15.779  0.124E+00  0.124E+00
 -15.769  0.121E+00  0.121E+00
 -15.759  0.118E+00  0.118E+00
 -15.749  0.115E+00  0.115E+00
 -15.739  0.112E+00  0.112E+00
 -15.729  0.110E+00  0.110E+00
 -15.719  0.106E+00  0.106E+00
 -15.709  0.103E+00  0.103E+00
 -15.699  0.100E+00  0.100E+00
 -15.689  0.989E-01  0.989E-01
 -15.679  0.975E-01  0.975E-01
 -15.669  0.961E-01  0.961E-01
 -15.659  0.948E-01  0.948E-01
 -15.649  0.934E-01  0.934E-01
 -15.639  0.924E-01  0.924E-01
 -15.629  0.915E-01  0.915E-01
 -15.619  0.905E-01  0.905E-01
 -15.609  0.896E-01  0.896E-01
 -15.599  0.886E-01  0.886E-01
 -15.589  0.877E-01  0.877E-01
 -15.579  0.867E-01  0.867E-01
 -15.569  0.858E-01  0.858E-01
 -15.559  0.848E-01  0.848E-01
 -15.549  0.839E-01  0.839E-01
 -15.539  0.829E-01  0.829E-01
 -15.529  0.819E-01  0.819E-01
 -15.519  0.810E-01  0.810E-01
 -15.509  0.799E-01  0.799E-01
 -15.499  0.788E-01  0.788E-01
 -15.489  0.778E-01  0.778E-01
 -15.479  0.768E-01  0.768E-01
 -15.469  0.757E-01  0.757E-01
 -15.459  0.747E-01  0.747E-01
 -15.449  0.737E-01  0.737E-01
 -15.439  0.705E-01  0.705E-01
 -15.429  0.700E-01  0.700E-01
 -15.419  0.696E-01  0.696E-01
 -15.409  0.691E-01  0.691E-01
 -15.399  0.686E-01  0.686E-01
 -15.389  0.682E-01  0.682E-01
 -15.379  0.677E-01  0.677E-01
 -15.369  0.673E-01  0.673E-01
 -15.359  0.668E-01  0.668E-01
 -15.349  0.663E-01  0.663E-01
 -15.339  0.659E-01  0.659E-01
 -15.329  0.654E-01  0.654E-01
 -15.319  0.649E-01  0.649E-01
 -15.309  0.644E-01  0.644E-01
 -15.299  0.639E-01  0.639E-01
 -15.289  0.634E-01  0.634E-01
 -15.279  0.629E-01  0.629E-01
 -15.269  0.624E-01  0.624E-01
 -15.259  0.618E-01  0.618E-01
 -15.249  0.613E-01  0.613E-01
 -15.239  0.608E-01  0.608E-01
 -15.229  0.603E-01  0.603E-01
 -15.219  0.598E-01  0.598E-01
 -15.209  0.593E-01  0.593E-01
 -15.199  0.588E-01  0.588E-01
 -15.189  0.582E-01  0.582E-01
 -15.179  0.576E-01  0.576E-01
 -15.169  0.566E-01  0.566E-01
 -15.159  0.557E-01  0.557E-01
 -15.149  0.547E-01  0.547E-01
 -15.139  0.537E-01  0.537E-01
 -15.129  0.528E-01  0.528E-01
 -15.119  0.524E-01  0.524E-01
 -15.109  0.521E-01  0.521E-01
 -15.099  0.518E-01  0.518E-01
 -15.089  0.515E-01  0.515E-01
 -15.079  0.512E-01  0.512E-01
 -15.069  0.509E-01  0.509E-01
 -15.059  0.506E-01  0.506E-01
 -15.049  0.503E-01  0.503E-01
 -15.039  0.500E-01  0.500E-01
 -15.029  0.497E-01  0.497E-01
 -15.019  0.494E-01  0.494E-01
 -15.009  0.491E-01  0.491E-01
 -14.999  0.488E-01  0.488E-01
 -14.989  0.485E-01  0.485E-01
 -14.979  0.482E-01  0.482E-01
 -14.969  0.479E-01  0.479E-01
 -14.959  0.476E-01  0.476E-01
 -14.949  0.473E-01  0.473E-01
 -14.939  0.470E-01  0.470E-01
 -14.929  0.466E-01  0.466E-01
 -14.919  0.462E-01  0.462E-01
 -14.909  0.458E-01  0.458E-01
 -14.899  0.453E-01  0.453E-01
 -14.889  0.449E-01  0.449E-01
 -14.879  0.444E-01  0.444E-01
 -14.869  0.440E-01  0.440E-01
 -14.859  0.436E-01  0.436E-01
 -14.849  0.431E-01  0.431E-01
 -14.839  0.427E-01  0.427E-01
 -14.829  0.423E-01  0.423E-01
 -14.819  0.418E-01  0.418E-01
 -14.809  0.400E-01  0.400E-01
 -14.799  0.398E-01  0.398E-01
 -14.789  0.396E-01  0.396E-01
 -14.779  0.394E-01  0.394E-01
 -14.769  0.392E-01  0.392E-01
 -14.759  0.390E-01  0.390E-01
 -14.749  0.388E-01  0.388E-01
 -14.739  0.386E-01  0.386E-01
 -14.729  0.384E-01  0.384E-01
 -14.719  0.382E-01  0.382E-01
 -14.709  0.380E-01  0.380E-01
 -14.699  0.378E-01  0.378E-01
 -14.689  0.375E-01  0.375E-01
 -14.679  0.373E-01  0.373E-01
 -14.669  0.370E-01  0.370E-01
 -14.659  0.368E-01  0.368E-01
 -14.649  0.365E-01  0.365E-01
 -14.639  0.363E-01  0.363E-01
 -14.629  0.360E-01  0.360E-01
 -14.619  0.358E-01  0.358E-01
 -14.609  0.355E-01  0.355E-01
 -14.599  0.353E-01  0.353E-01
 -14.589  0.350E-01  0.350E-01
 -14.579  0.348E-01  0.348E-01
 -14.569  0.346E-01  0.346E-01
 -14.559  0.343E-01  0.343E-01
 -14.549  0.341E-01  0.341E-01
 -14.539  0.338E-01  0.338E-01
 -14.529  0.336E-01  0.336E-01
 -14.519  0.332E-01  0.332E-01
 -14.509  0.327E-01  0.327E-01
 -14.499  0.321E-01  0.321E-01
 -14.489  0.316E-01  0.316E-01
 -14.479  0.311E-01  0.311E-01
 -14.469  0.305E-01  0.305E-01
 -14.459  0.300E-01  0.300E-01
 -14.449  0.295E-01  0.295E-01
 -14.439  0.294E-01  0.294E-01
 -14.429  0.292E-01  0.292E-01
 -14.419  0.291E-01  0.291E-01
 -14.409  0.289E-01  0.289E-01
 -14.399  0.287E-01  0.287E-01
 -14.389  0.286E-01  0.286E-01
 -14.379  0.284E-01  0.284E-01
 -14.369  0.283E-01  0.283E-01
 -14.359  0.281E-01  0.281E-01
 -14.349  0.280E-01  0.280E-01
 -14.339  0.278E-01  0.278E-01
 -14.329  0.276E-01  0.276E-01
 -14.319  0.275E-01  0.275E-01
 -14.309  0.273E-01  0.273E-01
 -14.299  0.272E-01  0.272E-01
 -14.289  0.270E-01  0.270E-01
 -14.279  0.269E-01  0.269E-01
 -14.269  0.267E-01  0.267E-01
 -14.259  0.265E-01  0.265E-01
 -14.249  0.262E-01  0.262E-01
 -14.239  0.260E-01  0.260E-01
 -14.229  0.258E-01  0.258E-01
 -14.219  0.255E-01  0.255E-01
 -14.209  0.253E-01  0.253E-01
 -14.199  0.250E-01  0.250E-01
 -14.189  0.248E-01  0.248E-01
 -14.179  0.246E-01  0.246E-01
 -14.169  0.243E-01  0.243E-01
 -14.159  0.241E-01  0.241E-01
 -14.149  0.240E-01  0.240E-01
 -14.139  0.239E-01  0.239E-01
 -14.129  0.237E-01  0.237E-01
 -14.119  0.236E-01  0.236E-01
 -14.109  0.235E-01  0.235E-01
 -14.099  0.221E-01  0.221E-01
 -14.089  0.221E-01  0.221E-01
 -14.079  0.220E-01  0.220E-01
 -14.069  0.219E-01  0.219E-01
 -14.059  0.218E-01  0.218E-01
 -14.049  0.218E-01  0.218E-01
 -14.039  0.216E-01  0.216E-01
 -14.029  0.216E-01  0.216E-01
 -14.019  0.215E-01  0.215E-01
 -14.009  0.215E-01  0.215E-01
 -13.999  0.214E-01  0.214E-01
 -13.989  0.214E-01  0.214E-01
 -13.979  0.214E-01  0.214E-01
 -13.969  0.213E-01  0.213E-01
 -13.959  0.213E-01  0.213E-01
 -13.949  0.213E-01  0.213E-01
 -13.939  0.212E-01  0.212E-01
 -13.929  0.212E-01  0.212E-01
 -13.919  0.212E-01  0.212E-01
 -13.909  0.212E-01  0.212E-01
 -13.899  0.209E-01  0.209E-01
 -13.889  0.208E-01  0.208E-01
 -13.879  0.208E-01  0.208E-01
 -13.869  0.207E-01  0.207E-01
 -13.859  0.206E-01  0.206E-01
 -13.849  0.205E-01  0.205E-01
 -13.839  0.204E-01  0.204E-01
 -13.829  0.203E-01  0.203E-01
 -13.819  0.202E-01  0.202E-01
 -13.809  0.200E-01  0.200E-01
 -13.799  0.197E-01  0.197E-01
 -13.789  0.195E-01  0.195E-01
 -13.779  0.192E-01  0.192E-01
 -13.769  0.190E-01  0.190E-01
 -13.759  0.187E-01  0.187E-01
 -13.749  0.185E-01  0.185E-01
 -13.739  0.183E-01  0.183E-01
 -13.729  0.180E-01  0.180E-01
 -13.719  0.178E-01  0.178E-01
 -13.709  0.176E-01  0.176E-01
 -13.699  0.174E-01  0.174E-01
 -13.689  0.172E-01  0.172E-01
 -13.679  0.171E-01  0.171E-01
 -13.669  0.171E-01  0.171E-01
 -13.659  0.170E-01  0.170E-01
 -13.649  0.169E-01  0.169E-01
 -13.639  0.168E-01  0.168E-01
 -13.629  0.167E-01  0.167E-01
 -13.619  0.166E-01  0.166E-01
 -13.609  0.165E-01  0.165E-01
 -13.599  0.164E-01  0.164E-01
 -13.589  0.163E-01  0.163E-01
 -13.579  0.162E-01  0.162E-01
 -13.569  0.161E-01  0.161E-01
 -13.559  0.159E-01  0.159E-01
 -13.549  0.158E-01  0.158E-01
 -13.539  0.157E-01  0.157E-01
 -13.529  0.156E-01  0.156E-01
 -13.519  0.155E-01  0.155E-01
 -13.509  0.153E-01  0.153E-01
 -13.499  0.152E-01  0.152E-01
 -13.489  0.151E-01  0.151E-01
 -13.479  0.150E-01  0.150E-01
 -13.469  0.148E-01  0.148E-01
 -13.459  0.147E-01  0.147E-01
 -13.449  0.146E-01  0.146E-01
 -13.439  0.144E-01  0.144E-01
 -13.429  0.143E-01  0.143E-01
 -13.419  0.141E-01  0.141E-01
 -13.409  0.140E-01  0.140E-01
 -13.399  0.138E-01  0.138E-01
 -13.389  0.141E-01  0.141E-01
 -13.379  0.141E-01  0.141E-01
 -13.369  0.140E-01  0.140E-01
 -13.359  0.132E-01  0.132E-01
 -13.349  0.130E-01  0.130E-01
 -13.339  0.128E-01  0.128E-01
 -13.329  0.125E-01  0.125E-01
 -13.319  0.123E-01  0.123E-01
 -13.309  0.120E-01  0.120E-01
 -13.299  0.117E-01  0.117E-01
 -13.289  0.114E-01  0.114E-01
 -13.279  0.110E-01  0.110E-01
 -13.269  0.106E-01  0.106E-01
 -13.259  0.102E-01  0.102E-01
 -13.249  0.975E-02  0.975E-02
 -13.239  0.934E-02  0.934E-02
 -13.229  0.897E-02  0.897E-02
 -13.219  0.861E-02  0.861E-02
 -13.209  0.825E-02  0.825E-02
 -13.199  0.790E-02  0.790E-02
 -13.189  0.755E-02  0.755E-02
 -13.179  0.720E-02  0.720E-02
 -13.169  0.684E-02  0.684E-02
 -13.159  0.648E-02  0.648E-02
 -13.149  0.612E-02  0.612E-02
 -13.139  0.576E-02  0.576E-02
 -13.129  0.539E-02  0.539E-02
 -13.119  0.503E-02  0.503E-02
 -13.109  0.468E-02  0.468E-02
 -13.099  0.431E-02  0.431E-02
 -13.089  0.394E-02  0.394E-02
 -13.079  0.356E-02  0.356E-02
 -13.069  0.318E-02  0.318E-02
 -13.059  0.278E-02  0.278E-02
 -13.049  0.238E-02  0.238E-02
 -13.039  0.197E-02  0.197E-02
 -13.029  0.156E-02  0.156E-02
 -13.019  0.113E-02  0.113E-02
 -13.009  0.701E-03  0.701E-03
 -12.999  0.314E-03  0.314E-03
 -12.989  0.277E-03  0.277E-03
 -12.979  0.241E-03  0.241E-03
 -12.969  0.205E-03  0.205E-03
 -12.959  0.170E-03  0.170E-03
 -12.949  0.207E-03  0.207E-03
 -12.939  0.187E-03  0.187E-03
 -12.929  0.167E-03  0.167E-03
 -12.919  0.148E-03  0.148E-03
 -12.909  0.128E-03  0.128E-03
 -12.899  0.109E-03  0.109E-03
 -12.889  0.902E-04  0.902E-04
 -12.879  0.716E-04  0.716E-04
 -12.869  0.531E-04  0.531E-04
 -12.859  0.349E-04  0.349E-04
 -12.849  0.361E-04  0.361E-04
 -12.839  0.318E-04  0.318E-04
 -12.829  0.261E-04  0.261E-04
 -12.819  0.201E-04  0.201E-04
 -12.809  0.137E-04  0.137E-04
 -12.799  0.706E-05  0.706E-05
 -12.789  0.542E-07  0.542E-07
 -12.779  0.149E-07  0.149E-07
 -12.769  0.225E-08  0.225E-08
 -12.759  0.620E-06  0.620E-06
 -12.749  0.876E-05  0.876E-05
 -12.739  0.263E-04  0.263E-04
 -12.729  0.533E-04  0.533E-04
 -12.719  0.898E-04  0.898E-04
 -12.709  0.136E-03  0.136E-03
 -12.699  0.191E-03  0.191E-03
 -12.689  0.256E-03  0.256E-03
 -12.679  0.330E-03  0.330E-03
 -12.669  0.414E-03  0.414E-03
 -12.659  0.507E-03  0.507E-03
 -12.649  0.609E-03  0.609E-03
 -12.639  0.721E-03  0.721E-03
 -12.629  0.842E-03  0.842E-03
 -12.619  0.973E-03  0.973E-03
 -12.609  0.111E-02  0.111E-02
 -12.599  0.126E-02  0.126E-02
 -12.589  0.142E-02  0.142E-02
 -12.579  0.159E-02  0.159E-02
 -12.569  0.177E-02  0.177E-02
 -12.559  0.196E-02  0.196E-02
 -12.549  0.215E-02  0.215E-02
 -12.539  0.236E-02  0.236E-02
 -12.529  0.258E-02  0.258E-02
 -12.519  0.280E-02  0.280E-02
 -12.509  0.304E-02  0.304E-02
 -12.499  0.328E-02  0.328E-02
 -12.489  0.353E-02  0.353E-02
 -12.479  0.380E-02  0.380E-02
 -12.469  0.407E-02  0.407E-02
 -12.459  0.435E-02  0.435E-02
 -12.449  0.464E-02  0.464E-02
 -12.439  0.494E-02  0.494E-02
 -12.429  0.525E-02  0.525E-02
 -12.419  0.634E-02  0.634E-02
 -12.409  0.649E-02  0.649E-02
 -12.399  0.664E-02  0.664E-02
 -12.389  0.679E-02  0.679E-02
 -12.379  0.694E-02  0.694E-02
 -12.369  0.709E-02  0.709E-02
 -12.359  0.724E-02  0.724E-02
 -12.349  0.739E-02  0.739E-02
 -12.339  0.755E-02  0.755E-02
 -12.329  0.770E-02  0.770E-02
 -12.319  0.785E-02  0.785E-02
 -12.309  0.801E-02  0.801E-02
 -12.299  0.816E-02  0.816E-02
 -12.289  0.831E-02  0.831E-02
 -12.279  0.847E-02  0.847E-02
 -12.269  0.862E-02  0.862E-02
 -12.259  0.878E-02  0.878E-02
 -12.249  0.894E-02  0.894E-02
 -12.239  0.909E-02  0.909E-02
 -12.229  0.925E-02  0.925E-02
 -12.219  0.941E-02  0.941E-02
 -12.209  0.957E-02  0.957E-02
 -12.199  0.973E-02  0.973E-02
 -12.189  0.140E-01  0.140E-01
 -12.179  0.201E-01  0.201E-01
 -12.169  0.246E-01  0.246E-01
 -12.159  0.267E-01  0.267E-01
 -12.149  0.289E-01  0.289E-01
 -12.139  0.310E-01  0.310E-01
 -12.129  0.331E-01  0.331E-01
 -12.119  0.356E-01  0.356E-01
 -12.109  0.381E-01  0.381E-01
 -12.099  0.401E-01  0.401E-01
 -12.089  0.419E-01  0.419E-01
 -12.079  0.438E-01  0.438E-01
 -12.069  0.455E-01  0.455E-01
 -12.059  0.473E-01  0.473E-01
 -12.049  0.491E-01  0.491E-01
 -12.039  0.508E-01  0.508E-01
 -12.029  0.526E-01  0.526E-01
 -12.019  0.543E-01  0.543E-01
 -12.009  0.560E-01  0.560E-01
 -11.999  0.577E-01  0.577E-01
 -11.989  0.551E-01  0.551E-01
 -11.979  0.554E-01  0.554E-01
 -11.969  0.557E-01  0.557E-01
 -11.959  0.560E-01  0.560E-01
 -11.949  0.569E-01  0.569E-01
 -11.939  0.579E-01  0.579E-01
 -11.929  0.589E-01  0.589E-01
 -11.919  0.599E-01  0.599E-01
 -11.909  0.609E-01  0.609E-01
 -11.899  0.623E-01  0.623E-01
 -11.889  0.689E-01  0.689E-01
 -11.879  0.760E-01  0.760E-01
 -11.869  0.809E-01  0.809E-01
 -11.859  0.812E-01  0.812E-01
 -11.849  0.815E-01  0.815E-01
 -11.839  0.819E-01  0.819E-01
 -11.829  0.803E-01  0.803E-01
 -11.819  0.771E-01  0.771E-01
 -11.809  0.739E-01  0.739E-01
 -11.799  0.708E-01  0.708E-01
 -11.789  0.678E-01  0.678E-01
 -11.779  0.638E-01  0.638E-01
 -11.769  0.598E-01  0.598E-01
 -11.759  0.557E-01  0.557E-01
 -11.749  0.516E-01  0.516E-01
 -11.739  0.475E-01  0.475E-01
 -11.729  0.435E-01  0.435E-01
 -11.719  0.430E-01  0.430E-01
 -11.709  0.424E-01  0.424E-01
 -11.699  0.419E-01  0.419E-01
 -11.689  0.414E-01  0.414E-01
 -11.679  0.409E-01  0.409E-01
 -11.669  0.403E-01  0.403E-01
 -11.659  0.398E-01  0.398E-01
 -11.649  0.393E-01  0.393E-01
 -11.639  0.388E-01  0.388E-01
 -11.629  0.382E-01  0.382E-01
 -11.619  0.377E-01  0.377E-01
 -11.609  0.372E-01  0.372E-01
 -11.599  0.367E-01  0.367E-01
 -11.589  0.362E-01  0.362E-01
 -11.579  0.354E-01  0.354E-01
 -11.569  0.345E-01  0.345E-01
 -11.559  0.338E-01  0.338E-01
 -11.549  0.333E-01  0.333E-01
 -11.539  0.331E-01  0.331E-01
 -11.529  0.328E-01  0.328E-01
 -11.519  0.326E-01  0.326E-01
 -11.509  0.323E-01  0.323E-01
 -11.499  0.321E-01  0.321E-01
 -11.489  0.318E-01  0.318E-01
 -11.479  0.316E-01  0.316E-01
 -11.469  0.313E-01  0.313E-01
 -11.459  0.310E-01  0.310E-01
 -11.449  0.308E-01  0.308E-01
 -11.439  0.306E-01  0.306E-01
 -11.429  0.304E-01  0.304E-01
 -11.419  0.302E-01  0.302E-01
 -11.409  0.239E-01  0.239E-01
 -11.399  0.237E-01  0.237E-01
 -11.389  0.234E-01  0.234E-01
 -11.379  0.232E-01  0.232E-01
 -11.369  0.229E-01  0.229E-01
 -11.359  0.226E-01  0.226E-01
 -11.349  0.224E-01  0.224E-01
 -11.339  0.221E-01  0.221E-01
 -11.329  0.218E-01  0.218E-01
 -11.319  0.216E-01  0.216E-01
 -11.309  0.213E-01  0.213E-01
 -11.299  0.211E-01  0.211E-01
 -11.289  0.208E-01  0.208E-01
 -11.279  0.205E-01  0.205E-01
 -11.269  0.203E-01  0.203E-01
 -11.259  0.200E-01  0.200E-01
 -11.249  0.197E-01  0.197E-01
 -11.239  0.195E-01  0.195E-01
 -11.229  0.192E-01  0.192E-01
 -11.219  0.189E-01  0.189E-01
 -11.209  0.187E-01  0.187E-01
 -11.199  0.184E-01  0.184E-01
 -11.189  0.181E-01  0.181E-01
 -11.179  0.179E-01  0.179E-01
 -11.169  0.176E-01  0.176E-01
 -11.159  0.173E-01  0.173E-01
 -11.149  0.171E-01  0.171E-01
 -11.139  0.168E-01  0.168E-01
 -11.129  0.165E-01  0.165E-01
 -11.119  0.163E-01  0.163E-01
 -11.109  0.160E-01  0.160E-01
 -11.099  0.157E-01  0.157E-01
 -11.089  0.162E-01  0.162E-01
 -11.079  0.183E-01  0.183E-01
 -11.069  0.202E-01  0.202E-01
 -11.059  0.219E-01  0.219E-01
 -11.049  0.236E-01  0.236E-01
 -11.039  0.250E-01  0.250E-01
 -11.029  0.263E-01  0.263E-01
 -11.019  0.127E-01  0.127E-01
 -11.009  0.126E-01  0.126E-01
 -10.999  0.125E-01  0.125E-01
 -10.989  0.123E-01  0.123E-01
 -10.979  0.122E-01  0.122E-01
 -10.969  0.120E-01  0.120E-01
 -10.959  0.119E-01  0.119E-01
 -10.949  0.118E-01  0.118E-01
 -10.939  0.116E-01  0.116E-01
 -10.929  0.115E-01  0.115E-01
 -10.919  0.114E-01  0.114E-01
 -10.909  0.112E-01  0.112E-01
 -10.899  0.111E-01  0.111E-01
 -10.889  0.109E-01  0.109E-01
 -10.879  0.117E-01  0.117E-01
 -10.869  0.129E-01  0.129E-01
 -10.859  0.142E-01  0.142E-01
 -10.849  0.156E-01  0.156E-01
 -10.839  0.171E-01  0.171E-01
 -10.829  0.186E-01  0.186E-01
 -10.819  0.193E-01  0.193E-01
 -10.809  0.207E-01  0.207E-01
 -10.799  0.222E-01  0.222E-01
 -10.789  0.237E-01  0.237E-01
 -10.779  0.252E-01  0.252E-01
 -10.769  0.267E-01  0.267E-01
 -10.759  0.264E-01  0.264E-01
 -10.749  0.262E-01  0.262E-01
 -10.739  0.264E-01  0.264E-01
 -10.729  0.761E-01  0.761E-01
 -10.719  0.245E-01  0.245E-01
 -10.709  0.236E-01  0.236E-01
 -10.699  0.225E-01  0.225E-01
 -10.689  0.209E-01  0.209E-01
 -10.679  0.189E-01  0.189E-01
 -10.669  0.168E-01  0.168E-01
 -10.659  0.166E-01  0.166E-01
 -10.649  0.167E-01  0.167E-01
 -10.639  0.176E-01  0.176E-01
 -10.629  0.188E-01  0.188E-01
 -10.619  0.199E-01  0.199E-01
 -10.609  0.210E-01  0.210E-01
 -10.599  0.219E-01  0.219E-01
 -10.589  0.228E-01  0.228E-01
 -10.579  0.237E-01  0.237E-01
 -10.569  0.157E-01  0.157E-01
 -10.559  0.157E-01  0.157E-01
 -10.549  0.157E-01  0.157E-01
 -10.539  0.157E-01  0.157E-01
 -10.529  0.157E-01  0.157E-01
 -10.519  0.157E-01  0.157E-01
 -10.509  0.157E-01  0.157E-01
 -10.499  0.157E-01  0.157E-01
 -10.489  0.157E-01  0.157E-01
 -10.479  0.158E-01  0.158E-01
 -10.469  0.158E-01  0.158E-01
 -10.459  0.158E-01  0.158E-01
 -10.449  0.158E-01  0.158E-01
 -10.439  0.158E-01  0.158E-01
 -10.429  0.159E-01  0.159E-01
 -10.419  0.159E-01  0.159E-01
 -10.409  0.159E-01  0.159E-01
 -10.399  0.159E-01  0.159E-01
 -10.389  0.235E-01  0.235E-01
 -10.379  0.216E-01  0.216E-01
 -10.369  0.197E-01  0.197E-01
 -10.359  0.180E-01  0.180E-01
 -10.349  0.165E-01  0.165E-01
 -10.339  0.151E-01  0.151E-01
 -10.329  0.146E-01  0.146E-01
 -10.319  0.144E-01  0.144E-01
 -10.309  0.141E-01  0.141E-01
 -10.299  0.139E-01  0.139E-01
 -10.289  0.138E-01  0.138E-01
 -10.279  0.137E-01  0.137E-01
 -10.269  0.136E-01  0.136E-01
 -10.259  0.136E-01  0.136E-01
 -10.249  0.135E-01  0.135E-01
 -10.239  0.135E-01  0.135E-01
 -10.229  0.134E-01  0.134E-01
 -10.219  0.134E-01  0.134E-01
 -10.209  0.133E-01  0.133E-01
 -10.199  0.133E-01  0.133E-01
 -10.189  0.132E-01  0.132E-01
 -10.179  0.132E-01  0.132E-01
 -10.169  0.112E-01  0.112E-01
 -10.159  0.112E-01  0.112E-01
 -10.149  0.113E-01  0.113E-01
 -10.139  0.113E-01  0.113E-01
 -10.129  0.113E-01  0.113E-01
 -10.119  0.114E-01  0.114E-01
 -10.109  0.115E-01  0.115E-01
 -10.099  0.115E-01  0.115E-01
 -10.089  0.116E-01  0.116E-01
 -10.079  0.117E-01  0.117E-01
 -10.069  0.117E-01  0.117E-01
 -10.059  0.118E-01  0.118E-01
 -10.049  0.119E-01  0.119E-01
 -10.039  0.119E-01  0.119E-01
 -10.029  0.120E-01  0.120E-01
 -10.019  0.121E-01  0.121E-01
 -10.009  0.122E-01  0.122E-01
  -9.999  0.122E-01  0.122E-01
  -9.989  0.123E-01  0.123E-01
  -9.979  0.124E-01  0.124E-01
  -9.969  0.125E-01  0.125E-01
  -9.959  0.126E-01  0.126E-01
  -9.949  0.175E-01  0.175E-01
  -9.939  0.173E-01  0.173E-01
  -9.929  0.170E-01  0.170E-01
  -9.919  0.168E-01  0.168E-01
  -9.909  0.166E-01  0.166E-01
  -9.899  0.164E-01  0.164E-01
  -9.889  0.162E-01  0.162E-01
  -9.879  0.160E-01  0.160E-01
  -9.869  0.158E-01  0.158E-01
  -9.859  0.156E-01  0.156E-01
  -9.849  0.154E-01  0.154E-01
  -9.839  0.152E-01  0.152E-01
  -9.829  0.148E-01  0.148E-01
  -9.819  0.146E-01  0.146E-01
  -9.809  0.144E-01  0.144E-01
  -9.799  0.141E-01  0.141E-01
  -9.789  0.139E-01  0.139E-01
  -9.779  0.137E-01  0.137E-01
  -9.769  0.135E-01  0.135E-01
  -9.759  0.132E-01  0.132E-01
  -9.749  0.130E-01  0.130E-01
  -9.739  0.128E-01  0.128E-01
  -9.729  0.126E-01  0.126E-01
  -9.719  0.124E-01  0.124E-01
  -9.709  0.121E-01  0.121E-01
  -9.699  0.119E-01  0.119E-01
  -9.689  0.117E-01  0.117E-01
  -9.679  0.117E-01  0.117E-01
  -9.669  0.117E-01  0.117E-01
  -9.659  0.117E-01  0.117E-01
  -9.649  0.116E-01  0.116E-01
  -9.639  0.116E-01  0.116E-01
  -9.629  0.116E-01  0.116E-01
  -9.619  0.115E-01  0.115E-01
  -9.609  0.115E-01  0.115E-01
  -9.599  0.114E-01  0.114E-01
  -9.589  0.114E-01  0.114E-01
  -9.579  0.113E-01  0.113E-01
  -9.569  0.113E-01  0.113E-01
  -9.559  0.112E-01  0.112E-01
  -9.549  0.112E-01  0.112E-01
  -9.539  0.111E-01  0.111E-01
  -9.529  0.111E-01  0.111E-01
  -9.519  0.980E-02  0.980E-02
  -9.509  0.982E-02  0.982E-02
  -9.499  0.983E-02  0.983E-02
  -9.489  0.984E-02  0.984E-02
  -9.479  0.984E-02  0.984E-02
  -9.469  0.979E-02  0.979E-02
  -9.459  0.981E-02  0.981E-02
  -9.449  0.984E-02  0.984E-02
  -9.439  0.986E-02  0.986E-02
  -9.429  0.983E-02  0.983E-02
  -9.419  0.980E-02  0.980E-02
  -9.409  0.978E-02  0.978E-02
  -9.399  0.975E-02  0.975E-02
  -9.389  0.966E-02  0.966E-02
  -9.379  0.948E-02  0.948E-02
  -9.369  0.930E-02  0.930E-02
  -9.359  0.912E-02  0.912E-02
  -9.349  0.894E-02  0.894E-02
  -9.339  0.877E-02  0.877E-02
  -9.329  0.859E-02  0.859E-02
  -9.319  0.842E-02  0.842E-02
  -9.309  0.826E-02  0.826E-02
  -9.299  0.809E-02  0.809E-02
  -9.289  0.793E-02  0.793E-02
  -9.279  0.777E-02  0.777E-02
  -9.269  0.761E-02  0.761E-02
  -9.259  0.745E-02  0.745E-02
  -9.249  0.730E-02  0.730E-02
  -9.239  0.715E-02  0.715E-02
  -9.229  0.700E-02  0.700E-02
  -9.219  0.687E-02  0.687E-02
  -9.209  0.681E-02  0.681E-02
  -9.199  0.674E-02  0.674E-02
  -9.189  0.668E-02  0.668E-02
  -9.179  0.686E-02  0.686E-02
  -9.169  0.724E-02  0.724E-02
  -9.159  0.761E-02  0.761E-02
  -9.149  0.799E-02  0.799E-02
  -9.139  0.837E-02  0.837E-02
  -9.129  0.875E-02  0.875E-02
  -9.119  0.914E-02  0.914E-02
  -9.109  0.954E-02  0.954E-02
  -9.099  0.994E-02  0.994E-02
  -9.089  0.103E-01  0.103E-01
  -9.079  0.107E-01  0.107E-01
  -9.069  0.111E-01  0.111E-01
  -9.059  0.119E-01  0.119E-01
  -9.049  0.110E-01  0.110E-01
  -9.039  0.107E-01  0.107E-01
  -9.029  0.105E-01  0.105E-01
  -9.019  0.102E-01  0.102E-01
  -9.009  0.100E-01  0.100E-01
  -8.999  0.977E-02  0.977E-02
  -8.989  0.955E-02  0.955E-02
  -8.979  0.933E-02  0.933E-02
  -8.969  0.912E-02  0.912E-02
  -8.959  0.919E-02  0.919E-02
  -8.949  0.901E-02  0.901E-02
  -8.939  0.884E-02  0.884E-02
  -8.929  0.867E-02  0.867E-02
  -8.919  0.851E-02  0.851E-02
  -8.909  0.835E-02  0.835E-02
  -8.899  0.820E-02  0.820E-02
  -8.889  0.806E-02  0.806E-02
  -8.879  0.793E-02  0.793E-02
  -8.869  0.796E-02  0.796E-02
  -8.859  0.825E-02  0.825E-02
  -8.849  0.853E-02  0.853E-02
  -8.839  0.881E-02  0.881E-02
  -8.829  0.909E-02  0.909E-02
  -8.819  0.937E-02  0.937E-02
  -8.809  0.965E-02  0.965E-02
  -8.799  0.989E-02  0.989E-02
  -8.789  0.102E-01  0.102E-01
  -8.779  0.104E-01  0.104E-01
  -8.769  0.106E-01  0.106E-01
  -8.759  0.108E-01  0.108E-01
  -8.749  0.110E-01  0.110E-01
  -8.739  0.112E-01  0.112E-01
  -8.729  0.114E-01  0.114E-01
  -8.719  0.117E-01  0.117E-01
  -8.709  0.118E-01  0.118E-01
  -8.699  0.120E-01  0.120E-01
  -8.689  0.122E-01  0.122E-01
  -8.679  0.124E-01  0.124E-01
  -8.669  0.125E-01  0.125E-01
  -8.659  0.127E-01  0.127E-01
  -8.649  0.128E-01  0.128E-01
  -8.639  0.140E-01  0.140E-01
  -8.629  0.142E-01  0.142E-01
  -8.619  0.144E-01  0.144E-01
  -8.609  0.147E-01  0.147E-01
  -8.599  0.149E-01  0.149E-01
  -8.589  0.151E-01  0.151E-01
  -8.579  0.148E-01  0.148E-01
  -8.569  0.150E-01  0.150E-01
  -8.559  0.151E-01  0.151E-01
  -8.549  0.164E-01  0.164E-01
  -8.539  0.174E-01  0.174E-01
  -8.529  0.184E-01  0.184E-01
  -8.519  0.194E-01  0.194E-01
  -8.509  0.202E-01  0.202E-01
  -8.499  0.183E-01  0.183E-01
  -8.489  0.186E-01  0.186E-01
  -8.479  0.192E-01  0.192E-01
  -8.469  0.199E-01  0.199E-01
  -8.459  0.207E-01  0.207E-01
  -8.449  0.215E-01  0.215E-01
  -8.439  0.223E-01  0.223E-01
  -8.429  0.201E-01  0.201E-01
  -8.419  0.186E-01  0.186E-01
  -8.409  0.172E-01  0.172E-01
  -8.399  0.165E-01  0.165E-01
  -8.389  0.160E-01  0.160E-01
  -8.379  0.158E-01  0.158E-01
  -8.369  0.157E-01  0.157E-01
  -8.359  0.156E-01  0.156E-01
  -8.349  0.156E-01  0.156E-01
  -8.339  0.155E-01  0.155E-01
  -8.329  0.154E-01  0.154E-01
  -8.319  0.153E-01  0.153E-01
  -8.309  0.153E-01  0.153E-01
  -8.299  0.152E-01  0.152E-01
  -8.289  0.152E-01  0.152E-01
  -8.279  0.156E-01  0.156E-01
  -8.269  0.157E-01  0.157E-01
  -8.259  0.158E-01  0.158E-01
  -8.249  0.166E-01  0.166E-01
  -8.239  0.169E-01  0.169E-01
  -8.229  0.171E-01  0.171E-01
  -8.219  0.172E-01  0.172E-01
  -8.209  0.172E-01  0.172E-01
  -8.199  0.172E-01  0.172E-01
  -8.189  0.186E-01  0.186E-01
  -8.179  0.178E-01  0.178E-01
  -8.169  0.174E-01  0.174E-01
  -8.159  0.171E-01  0.171E-01
  -8.149  0.169E-01  0.169E-01
  -8.139  0.167E-01  0.167E-01
  -8.129  0.167E-01  0.167E-01
  -8.119  0.167E-01  0.167E-01
  -8.109  0.175E-01  0.175E-01
  -8.099  0.192E-01  0.192E-01
  -8.089  0.207E-01  0.207E-01
  -8.079  0.211E-01  0.211E-01
  -8.069  0.211E-01  0.211E-01
  -8.059  0.209E-01  0.209E-01
  -8.049  0.208E-01  0.208E-01
  -8.039  0.206E-01  0.206E-01
  -8.029  0.205E-01  0.205E-01
  -8.019  0.203E-01  0.203E-01
  -8.009  0.168E-01  0.168E-01
  -7.999  0.155E-01  0.155E-01
  -7.989  0.143E-01  0.143E-01
  -7.979  0.131E-01  0.131E-01
  -7.969  0.119E-01  0.119E-01
  -7.959  0.109E-01  0.109E-01
  -7.949  0.102E-01  0.102E-01
  -7.939  0.959E-02  0.959E-02
  -7.929  0.900E-02  0.900E-02
  -7.919  0.842E-02  0.842E-02
  -7.909  0.790E-02  0.790E-02
  -7.899  0.814E-02  0.814E-02
  -7.889  0.794E-02  0.794E-02
  -7.879  0.776E-02  0.776E-02
  -7.869  0.761E-02  0.761E-02
  -7.859  0.671E-02  0.671E-02
  -7.849  0.567E-02  0.567E-02
  -7.839  0.474E-02  0.474E-02
  -7.829  0.394E-02  0.394E-02
  -7.819  0.299E-02  0.299E-02
  -7.809  0.145E-02  0.145E-02
  -7.799  0.351E-03  0.351E-03
  -7.789  0.352E-03  0.352E-03
  -7.779  0.354E-03  0.354E-03
  -7.769  0.361E-03  0.361E-03
  -7.759  0.371E-03  0.371E-03
  -7.749  0.383E-03  0.383E-03
  -7.739  0.396E-03  0.396E-03
  -7.729  0.412E-03  0.412E-03
  -7.719  0.429E-03  0.429E-03
  -7.709  0.444E-03  0.444E-03
  -7.699  0.461E-03  0.461E-03
  -7.689  0.479E-03  0.479E-03
  -7.679  0.497E-03  0.497E-03
  -7.669  0.517E-03  0.517E-03
  -7.659  0.537E-03  0.537E-03
  -7.649  0.558E-03  0.558E-03
  -7.639  0.580E-03  0.580E-03
  -7.629  0.603E-03  0.603E-03
  -7.619  0.626E-03  0.626E-03
  -7.609  0.651E-03  0.651E-03
  -7.599  0.676E-03  0.676E-03
  -7.589  0.702E-03  0.702E-03
  -7.579  0.729E-03  0.729E-03
  -7.569  0.757E-03  0.757E-03
  -7.559  0.785E-03  0.785E-03
  -7.549  0.815E-03  0.815E-03
  -7.539  0.845E-03  0.845E-03
  -7.529  0.877E-03  0.877E-03
  -7.519  0.909E-03  0.909E-03
  -7.509  0.943E-03  0.943E-03
  -7.499  0.977E-03  0.977E-03
  -7.489  0.101E-02  0.101E-02
  -7.479  0.105E-02  0.105E-02
  -7.469  0.109E-02  0.109E-02
  -7.459  0.112E-02  0.112E-02
  -7.449  0.134E-02  0.134E-02
  -7.439  0.147E-02  0.147E-02
  -7.429  0.162E-02  0.162E-02
  -7.419  0.179E-02  0.179E-02
  -7.409  0.197E-02  0.197E-02
  -7.399  0.216E-02  0.216E-02
  -7.389  0.237E-02  0.237E-02
  -7.379  0.259E-02  0.259E-02
  -7.369  0.281E-02  0.281E-02
  -7.359  0.305E-02  0.305E-02
  -7.349  0.331E-02  0.331E-02
  -7.339  0.358E-02  0.358E-02
  -7.329  0.387E-02  0.387E-02
  -7.319  0.417E-02  0.417E-02
  -7.309  0.449E-02  0.449E-02
  -7.299  0.483E-02  0.483E-02
  -7.289  0.518E-02  0.518E-02
  -7.279  0.555E-02  0.555E-02
  -7.269  0.593E-02  0.593E-02
  -7.259  0.635E-02  0.635E-02
  -7.249  0.109E-01  0.109E-01
  -7.239  0.189E-01  0.189E-01
  -7.229  0.275E-01  0.275E-01
  -7.219  0.358E-01  0.358E-01
  -7.209  0.449E-01  0.449E-01
  -7.199  0.466E-01  0.466E-01
  -7.189  0.518E-01  0.518E-01
  -7.179  0.633E-01  0.633E-01
  -7.169  0.705E-01  0.705E-01
  -7.159  0.778E-01  0.778E-01
  -7.149  0.855E-01  0.855E-01
  -7.139  0.882E-01  0.882E-01
  -7.129  0.975E-01  0.975E-01
  -7.119  0.894E-01  0.894E-01
  -7.109  0.754E-01  0.754E-01
  -7.099  0.771E-01  0.771E-01
  -7.089  0.795E-01  0.795E-01
  -7.079  0.818E-01  0.818E-01
  -7.069  0.839E-01  0.839E-01
  -7.059  0.114E+00  0.114E+00
  -7.049  0.527E-01  0.527E-01
  -7.039  0.494E-01  0.494E-01
  -7.029  0.462E-01  0.462E-01
  -7.019  0.428E-01  0.428E-01
  -7.009  0.395E-01  0.395E-01
  -6.999  0.361E-01  0.361E-01
  -6.989  0.327E-01  0.327E-01
  -6.979  0.339E-01  0.339E-01
  -6.969  0.362E-01  0.362E-01
  -6.959  0.384E-01  0.384E-01
  -6.949  0.405E-01  0.405E-01
  -6.939  0.224E-01  0.224E-01
  -6.929  0.216E-01  0.216E-01
  -6.919  0.208E-01  0.208E-01
  -6.909  0.201E-01  0.201E-01
  -6.899  0.193E-01  0.193E-01
  -6.889  0.185E-01  0.185E-01
  -6.879  0.177E-01  0.177E-01
  -6.869  0.170E-01  0.170E-01
  -6.859  0.162E-01  0.162E-01
  -6.849  0.154E-01  0.154E-01
  -6.839  0.147E-01  0.147E-01
  -6.829  0.139E-01  0.139E-01
  -6.819  0.131E-01  0.131E-01
  -6.809  0.124E-01  0.124E-01
  -6.799  0.116E-01  0.116E-01
  -6.789  0.108E-01  0.108E-01
  -6.779  0.101E-01  0.101E-01
  -6.769  0.983E-02  0.983E-02
  -6.759  0.102E-01  0.102E-01
  -6.749  0.105E-01  0.105E-01
  -6.739  0.108E-01  0.108E-01
  -6.729  0.111E-01  0.111E-01
  -6.719  0.114E-01  0.114E-01
  -6.709  0.117E-01  0.117E-01
  -6.699  0.119E-01  0.119E-01
  -6.689  0.000E+00  0.000E+00
  -6.679  0.000E+00  0.000E+00
  -6.669  0.000E+00  0.000E+00
  -6.659  0.000E+00  0.000E+00
  -6.649  0.000E+00  0.000E+00
  -6.639  0.000E+00  0.000E+00
  -6.629  0.000E+00  0.000E+00
  -6.619  0.000E+00  0.000E+00
  -6.609  0.000E+00  0.000E+00
  -6.599  0.000E+00  0.000E+00
  -6.589  0.000E+00  0.000E+00
  -6.579  0.000E+00  0.000E+00
  -6.569  0.000E+00  0.000E+00
  -6.559  0.000E+00  0.000E+00
  -6.549  0.000E+00  0.000E+00
  -6.539  0.000E+00  0.000E+00
  -6.529  0.000E+00  0.000E+00
  -6.519  0.000E+00  0.000E+00
  -6.509  0.000E+00  0.000E+00
  -6.499  0.000E+00  0.000E+00
  -6.489  0.000E+00  0.000E+00
  -6.479  0.000E+00  0.000E+00
  -6.469  0.000E+00  0.000E+00
  -6.459  0.000E+00  0.000E+00
  -6.449  0.000E+00  0.000E+00
  -6.439  0.000E+00  0.000E+00
  -6.429  0.000E+00  0.000E+00
  -6.419  0.000E+00  0.000E+00
  -6.409  0.000E+00  0.000E+00
  -6.399  0.906E-03  0.906E-03
  -6.389  0.231E-01  0.231E-01
  -6.379  0.209E-01  0.209E-01
  -6.369  0.189E-01  0.189E-01
  -6.359  0.170E-01  0.170E-01
  -6.349  0.154E-01  0.154E-01
  -6.339  0.161E-01  0.161E-01
  -6.329  0.350E-01  0.350E-01
  -6.319  0.229E-01  0.229E-01
  -6.309  0.257E-01  0.257E-01
  -6.299  0.285E-01  0.285E-01
  -6.289  0.313E-01  0.313E-01
  -6.279  0.342E-01  0.342E-01
  -6.269  0.370E-01  0.370E-01
  -6.259  0.399E-01  0.399E-01
  -6.249  0.429E-01  0.429E-01
  -6.239  0.271E-01  0.271E-01
  -6.229  0.263E-01  0.263E-01
  -6.219  0.255E-01  0.255E-01
  -6.209  0.246E-01  0.246E-01
  -6.199  0.237E-01  0.237E-01
  -6.189  0.229E-01  0.229E-01
  -6.179  0.221E-01  0.221E-01
  -6.169  0.213E-01  0.213E-01
  -6.159  0.205E-01  0.205E-01
  -6.149  0.197E-01  0.197E-01
  -6.139  0.181E-01  0.181E-01
  -6.129  0.178E-01  0.178E-01
  -6.119  0.174E-01  0.174E-01
  -6.109  0.173E-01  0.173E-01
  -6.099  0.171E-01  0.171E-01
  -6.089  0.170E-01  0.170E-01
  -6.079  0.169E-01  0.169E-01
  -6.069  0.168E-01  0.168E-01
  -6.059  0.166E-01  0.166E-01
  -6.049  0.165E-01  0.165E-01
  -6.039  0.164E-01  0.164E-01
  -6.029  0.162E-01  0.162E-01
  -6.019  0.161E-01  0.161E-01
  -6.009  0.159E-01  0.159E-01
  -5.999  0.158E-01  0.158E-01
  -5.989  0.157E-01  0.157E-01
  -5.979  0.155E-01  0.155E-01
  -5.969  0.154E-01  0.154E-01
  -5.959  0.152E-01  0.152E-01
  -5.949  0.151E-01  0.151E-01
  -5.939  0.150E-01  0.150E-01
  -5.929  0.149E-01  0.149E-01
  -5.919  0.147E-01  0.147E-01
  -5.909  0.146E-01  0.146E-01
  -5.899  0.144E-01  0.144E-01
  -5.889  0.143E-01  0.143E-01
  -5.879  0.141E-01  0.141E-01
  -5.869  0.139E-01  0.139E-01
  -5.859  0.137E-01  0.137E-01
  -5.849  0.135E-01  0.135E-01
  -5.839  0.133E-01  0.133E-01
  -5.829  0.131E-01  0.131E-01
  -5.819  0.129E-01  0.129E-01
  -5.809  0.127E-01  0.127E-01
  -5.799  0.126E-01  0.126E-01
  -5.789  0.126E-01  0.126E-01
  -5.779  0.126E-01  0.126E-01
  -5.769  0.125E-01  0.125E-01
  -5.759  0.125E-01  0.125E-01
  -5.749  0.124E-01  0.124E-01
  -5.739  0.124E-01  0.124E-01
  -5.729  0.123E-01  0.123E-01
  -5.719  0.123E-01  0.123E-01
  -5.709  0.122E-01  0.122E-01
  -5.699  0.122E-01  0.122E-01
  -5.689  0.121E-01  0.121E-01
  -5.679  0.121E-01  0.121E-01
  -5.669  0.120E-01  0.120E-01
  -5.659  0.120E-01  0.120E-01
  -5.649  0.119E-01  0.119E-01
  -5.639  0.119E-01  0.119E-01
  -5.629  0.118E-01  0.118E-01
  -5.619  0.118E-01  0.118E-01
  -5.609  0.117E-01  0.117E-01
  -5.599  0.116E-01  0.116E-01
  -5.589  0.116E-01  0.116E-01
  -5.579  0.115E-01  0.115E-01
  -5.569  0.115E-01  0.115E-01
  -5.559  0.114E-01  0.114E-01
  -5.549  0.121E-01  0.121E-01
  -5.539  0.140E-01  0.140E-01
  -5.529  0.158E-01  0.158E-01
  -5.519  0.177E-01  0.177E-01
  -5.509  0.194E-01  0.194E-01
  -5.499  0.212E-01  0.212E-01
  -5.489  0.229E-01  0.229E-01
  -5.479  0.246E-01  0.246E-01
  -5.469  0.255E-01  0.255E-01
  -5.459  0.272E-01  0.272E-01
  -5.449  0.232E-01  0.232E-01
  -5.439  0.213E-01  0.213E-01
  -5.429  0.214E-01  0.214E-01
  -5.419  0.215E-01  0.215E-01
  -5.409  0.216E-01  0.216E-01
  -5.399  0.216E-01  0.216E-01
  -5.389  0.217E-01  0.217E-01
  -5.379  0.218E-01  0.218E-01
  -5.369  0.218E-01  0.218E-01
  -5.359  0.219E-01  0.219E-01
  -5.349  0.220E-01  0.220E-01
  -5.339  0.220E-01  0.220E-01
  -5.329  0.220E-01  0.220E-01
  -5.319  0.221E-01  0.221E-01
  -5.309  0.221E-01  0.221E-01
  -5.299  0.221E-01  0.221E-01
  -5.289  0.221E-01  0.221E-01
  -5.279  0.221E-01  0.221E-01
  -5.269  0.223E-01  0.223E-01
  -5.259  0.226E-01  0.226E-01
  -5.249  0.229E-01  0.229E-01
  -5.239  0.231E-01  0.231E-01
  -5.229  0.233E-01  0.233E-01
  -5.219  0.233E-01  0.233E-01
  -5.209  0.233E-01  0.233E-01
  -5.199  0.233E-01  0.233E-01
  -5.189  0.232E-01  0.232E-01
  -5.179  0.232E-01  0.232E-01
  -5.169  0.231E-01  0.231E-01
  -5.159  0.230E-01  0.230E-01
  -5.149  0.228E-01  0.228E-01
  -5.139  0.227E-01  0.227E-01
  -5.129  0.225E-01  0.225E-01
  -5.119  0.223E-01  0.223E-01
  -5.109  0.222E-01  0.222E-01
  -5.099  0.228E-01  0.228E-01
  -5.089  0.243E-01  0.243E-01
  -5.079  0.256E-01  0.256E-01
  -5.069  0.267E-01  0.267E-01
  -5.059  0.277E-01  0.277E-01
  -5.049  0.288E-01  0.288E-01
  -5.039  0.325E-01  0.325E-01
  -5.029  0.307E-01  0.307E-01
  -5.019  0.290E-01  0.290E-01
  -5.009  0.275E-01  0.275E-01
  -4.999  0.262E-01  0.262E-01
  -4.989  0.251E-01  0.251E-01
  -4.979  0.241E-01  0.241E-01
  -4.969  0.233E-01  0.233E-01
  -4.959  0.228E-01  0.228E-01
  -4.949  0.223E-01  0.223E-01
  -4.939  0.218E-01  0.218E-01
  -4.929  0.213E-01  0.213E-01
  -4.919  0.208E-01  0.208E-01
  -4.909  0.197E-01  0.197E-01
  -4.899  0.180E-01  0.180E-01
  -4.889  0.166E-01  0.166E-01
  -4.879  0.164E-01  0.164E-01
  -4.869  0.161E-01  0.161E-01
  -4.859  0.171E-01  0.171E-01
  -4.849  0.165E-01  0.165E-01
  -4.839  0.159E-01  0.159E-01
  -4.829  0.153E-01  0.153E-01
  -4.819  0.148E-01  0.148E-01
  -4.809  0.143E-01  0.143E-01
  -4.799  0.139E-01  0.139E-01
  -4.789  0.135E-01  0.135E-01
  -4.779  0.131E-01  0.131E-01
  -4.769  0.127E-01  0.127E-01
  -4.759  0.124E-01  0.124E-01
  -4.749  0.117E-01  0.117E-01
  -4.739  0.116E-01  0.116E-01
  -4.729  0.116E-01  0.116E-01
  -4.719  0.150E-01  0.150E-01
  -4.709  0.161E-01  0.161E-01
  -4.699  0.171E-01  0.171E-01
  -4.689  0.187E-01  0.187E-01
  -4.679  0.199E-01  0.199E-01
  -4.669  0.211E-01  0.211E-01
  -4.659  0.196E-01  0.196E-01
  -4.649  0.198E-01  0.198E-01
  -4.639  0.195E-01  0.195E-01
  -4.629  0.199E-01  0.199E-01
  -4.619  0.206E-01  0.206E-01
  -4.609  0.218E-01  0.218E-01
  -4.599  0.242E-01  0.242E-01
  -4.589  0.276E-01  0.276E-01
  -4.579  0.320E-01  0.320E-01
  -4.569  0.363E-01  0.363E-01
  -4.559  0.344E-01  0.344E-01
  -4.549  0.451E-01  0.451E-01
  -4.539  0.357E-01  0.357E-01
  -4.529  0.327E-01  0.327E-01
  -4.519  0.289E-01  0.289E-01
  -4.509  0.284E-01  0.284E-01
  -4.499  0.281E-01  0.281E-01
  -4.489  0.276E-01  0.276E-01
  -4.479  0.270E-01  0.270E-01
  -4.469  0.263E-01  0.263E-01
  -4.459  0.253E-01  0.253E-01
  -4.449  0.247E-01  0.247E-01
  -4.439  0.246E-01  0.246E-01
  -4.429  0.245E-01  0.245E-01
  -4.419  0.243E-01  0.243E-01
  -4.409  0.241E-01  0.241E-01
  -4.399  0.239E-01  0.239E-01
  -4.389  0.237E-01  0.237E-01
  -4.379  0.234E-01  0.234E-01
  -4.369  0.231E-01  0.231E-01
  -4.359  0.219E-01  0.219E-01
  -4.349  0.217E-01  0.217E-01
  -4.339  0.216E-01  0.216E-01
  -4.329  0.214E-01  0.214E-01
  -4.319  0.213E-01  0.213E-01
  -4.309  0.213E-01  0.213E-01
  -4.299  0.212E-01  0.212E-01
  -4.289  0.212E-01  0.212E-01
  -4.279  0.212E-01  0.212E-01
  -4.269  0.212E-01  0.212E-01
  -4.259  0.210E-01  0.210E-01
  -4.249  0.209E-01  0.209E-01
  -4.239  0.208E-01  0.208E-01
  -4.229  0.206E-01  0.206E-01
  -4.219  0.205E-01  0.205E-01
  -4.209  0.204E-01  0.204E-01
  -4.199  0.203E-01  0.203E-01
  -4.189  0.201E-01  0.201E-01
  -4.179  0.200E-01  0.200E-01
  -4.169  0.198E-01  0.198E-01
  -4.159  0.197E-01  0.197E-01
  -4.149  0.196E-01  0.196E-01
  -4.139  0.194E-01  0.194E-01
  -4.129  0.192E-01  0.192E-01
  -4.119  0.191E-01  0.191E-01
  -4.109  0.189E-01  0.189E-01
  -4.099  0.187E-01  0.187E-01
  -4.089  0.186E-01  0.186E-01
  -4.079  0.184E-01  0.184E-01
  -4.069  0.182E-01  0.182E-01
  -4.059  0.181E-01  0.181E-01
  -4.049  0.179E-01  0.179E-01
  -4.039  0.179E-01  0.179E-01
  -4.029  0.179E-01  0.179E-01
  -4.019  0.179E-01  0.179E-01
  -4.009  0.177E-01  0.177E-01
  -3.999  0.177E-01  0.177E-01
  -3.989  0.177E-01  0.177E-01
  -3.979  0.177E-01  0.177E-01
  -3.969  0.177E-01  0.177E-01
  -3.959  0.177E-01  0.177E-01
  -3.949  0.177E-01  0.177E-01
  -3.939  0.176E-01  0.176E-01
  -3.929  0.176E-01  0.176E-01
  -3.919  0.176E-01  0.176E-01
  -3.909  0.176E-01  0.176E-01
  -3.899  0.175E-01  0.175E-01
  -3.889  0.175E-01  0.175E-01
  -3.879  0.175E-01  0.175E-01
  -3.869  0.174E-01  0.174E-01
  -3.859  0.174E-01  0.174E-01
  -3.849  0.174E-01  0.174E-01
  -3.839  0.173E-01  0.173E-01
  -3.829  0.173E-01  0.173E-01
  -3.819  0.172E-01  0.172E-01
  -3.809  0.172E-01  0.172E-01
  -3.799  0.171E-01  0.171E-01
  -3.789  0.171E-01  0.171E-01
  -3.779  0.170E-01  0.170E-01
  -3.769  0.170E-01  0.170E-01
  -3.759  0.169E-01  0.169E-01
  -3.749  0.168E-01  0.168E-01
  -3.739  0.168E-01  0.168E-01
  -3.729  0.162E-01  0.162E-01
  -3.719  0.162E-01  0.162E-01
  -3.709  0.162E-01  0.162E-01
  -3.699  0.162E-01  0.162E-01
  -3.689  0.161E-01  0.161E-01
  -3.679  0.161E-01  0.161E-01
  -3.669  0.161E-01  0.161E-01
  -3.659  0.161E-01  0.161E-01
  -3.649  0.160E-01  0.160E-01
  -3.639  0.160E-01  0.160E-01
  -3.629  0.160E-01  0.160E-01
  -3.619  0.160E-01  0.160E-01
  -3.609  0.155E-01  0.155E-01
  -3.599  0.155E-01  0.155E-01
  -3.589  0.155E-01  0.155E-01
  -3.579  0.155E-01  0.155E-01
  -3.569  0.154E-01  0.154E-01
  -3.559  0.154E-01  0.154E-01
  -3.549  0.154E-01  0.154E-01
  -3.539  0.154E-01  0.154E-01
  -3.529  0.154E-01  0.154E-01
  -3.519  0.154E-01  0.154E-01
  -3.509  0.153E-01  0.153E-01
  -3.499  0.153E-01  0.153E-01
  -3.489  0.153E-01  0.153E-01
  -3.479  0.153E-01  0.153E-01
  -3.469  0.153E-01  0.153E-01
  -3.459  0.152E-01  0.152E-01
  -3.449  0.152E-01  0.152E-01
  -3.439  0.152E-01  0.152E-01
  -3.429  0.151E-01  0.151E-01
  -3.419  0.151E-01  0.151E-01
  -3.409  0.150E-01  0.150E-01
  -3.399  0.156E-01  0.156E-01
  -3.389  0.157E-01  0.157E-01
  -3.379  0.158E-01  0.158E-01
  -3.369  0.159E-01  0.159E-01
  -3.359  0.159E-01  0.159E-01
  -3.349  0.160E-01  0.160E-01
  -3.339  0.161E-01  0.161E-01
  -3.329  0.161E-01  0.161E-01
  -3.319  0.161E-01  0.161E-01
  -3.309  0.160E-01  0.160E-01
  -3.299  0.160E-01  0.160E-01
  -3.289  0.160E-01  0.160E-01
  -3.279  0.160E-01  0.160E-01
  -3.269  0.161E-01  0.161E-01
  -3.259  0.161E-01  0.161E-01
  -3.249  0.161E-01  0.161E-01
  -3.239  0.161E-01  0.161E-01
  -3.229  0.161E-01  0.161E-01
  -3.219  0.161E-01  0.161E-01
  -3.209  0.161E-01  0.161E-01
  -3.199  0.161E-01  0.161E-01
  -3.189  0.160E-01  0.160E-01
  -3.179  0.160E-01  0.160E-01
  -3.169  0.159E-01  0.159E-01
  -3.159  0.159E-01  0.159E-01
  -3.149  0.153E-01  0.153E-01
  -3.139  0.147E-01  0.147E-01
  -3.129  0.141E-01  0.141E-01
  -3.119  0.137E-01  0.137E-01
  -3.109  0.134E-01  0.134E-01
  -3.099  0.132E-01  0.132E-01
  -3.089  0.130E-01  0.130E-01
  -3.079  0.127E-01  0.127E-01
  -3.069  0.125E-01  0.125E-01
  -3.059  0.123E-01  0.123E-01
  -3.049  0.121E-01  0.121E-01
  -3.039  0.119E-01  0.119E-01
  -3.029  0.117E-01  0.117E-01
  -3.019  0.115E-01  0.115E-01
  -3.009  0.113E-01  0.113E-01
  -2.999  0.112E-01  0.112E-01
  -2.989  0.111E-01  0.111E-01
  -2.979  0.109E-01  0.109E-01
  -2.969  0.108E-01  0.108E-01
  -2.959  0.107E-01  0.107E-01
  -2.949  0.105E-01  0.105E-01
  -2.939  0.104E-01  0.104E-01
  -2.929  0.103E-01  0.103E-01
  -2.919  0.102E-01  0.102E-01
  -2.909  0.970E-02  0.970E-02
  -2.899  0.960E-02  0.960E-02
  -2.889  0.950E-02  0.950E-02
  -2.879  0.939E-02  0.939E-02
  -2.869  0.929E-02  0.929E-02
  -2.859  0.920E-02  0.920E-02
  -2.849  0.913E-02  0.913E-02
  -2.839  0.906E-02  0.906E-02
  -2.829  0.899E-02  0.899E-02
  -2.819  0.893E-02  0.893E-02
  -2.809  0.886E-02  0.886E-02
  -2.799  0.879E-02  0.879E-02
  -2.789  0.873E-02  0.873E-02
  -2.779  0.866E-02  0.866E-02
  -2.769  0.859E-02  0.859E-02
  -2.759  0.853E-02  0.853E-02
  -2.749  0.847E-02  0.847E-02
  -2.739  0.840E-02  0.840E-02
  -2.729  0.834E-02  0.834E-02
  -2.719  0.826E-02  0.826E-02
  -2.709  0.819E-02  0.819E-02
  -2.699  0.811E-02  0.811E-02
  -2.689  0.804E-02  0.804E-02
  -2.679  0.797E-02  0.797E-02
  -2.669  0.790E-02  0.790E-02
  -2.659  0.783E-02  0.783E-02
  -2.649  0.777E-02  0.777E-02
  -2.639  0.770E-02  0.770E-02
  -2.629  0.765E-02  0.765E-02
  -2.619  0.759E-02  0.759E-02
  -2.609  0.753E-02  0.753E-02
  -2.599  0.745E-02  0.745E-02
  -2.589  0.737E-02  0.737E-02
  -2.579  0.729E-02  0.729E-02
  -2.569  0.721E-02  0.721E-02
  -2.559  0.713E-02  0.713E-02
  -2.549  0.706E-02  0.706E-02
  -2.539  0.714E-02  0.714E-02
  -2.529  0.701E-02  0.701E-02
  -2.519  0.688E-02  0.688E-02
  -2.509  0.675E-02  0.675E-02
  -2.499  0.663E-02  0.663E-02
  -2.489  0.650E-02  0.650E-02
  -2.479  0.639E-02  0.639E-02
  -2.469  0.627E-02  0.627E-02
  -2.459  0.616E-02  0.616E-02
  -2.449  0.606E-02  0.606E-02
  -2.439  0.598E-02  0.598E-02
  -2.429  0.590E-02  0.590E-02
  -2.419  0.582E-02  0.582E-02
  -2.409  0.574E-02  0.574E-02
  -2.399  0.572E-02  0.572E-02
  -2.389  0.565E-02  0.565E-02
  -2.379  0.558E-02  0.558E-02
  -2.369  0.551E-02  0.551E-02
  -2.359  0.545E-02  0.545E-02
  -2.349  0.539E-02  0.539E-02
  -2.339  0.532E-02  0.532E-02
  -2.329  0.526E-02  0.526E-02
  -2.319  0.520E-02  0.520E-02
  -2.309  0.515E-02  0.515E-02
  -2.299  0.509E-02  0.509E-02
  -2.289  0.504E-02  0.504E-02
  -2.279  0.499E-02  0.499E-02
  -2.269  0.494E-02  0.494E-02
  -2.259  0.489E-02  0.489E-02
  -2.249  0.485E-02  0.485E-02
  -2.239  0.481E-02  0.481E-02
  -2.229  0.476E-02  0.476E-02
  -2.219  0.473E-02  0.473E-02
  -2.209  0.469E-02  0.469E-02
  -2.199  0.465E-02  0.465E-02
  -2.189  0.462E-02  0.462E-02
  -2.179  0.459E-02  0.459E-02
  -2.169  0.456E-02  0.456E-02
  -2.159  0.453E-02  0.453E-02
  -2.149  0.451E-02  0.451E-02
  -2.139  0.449E-02  0.449E-02
  -2.129  0.423E-02  0.423E-02
  -2.119  0.429E-02  0.429E-02
  -2.109  0.435E-02  0.435E-02
  -2.099  0.439E-02  0.439E-02
  -2.089  0.442E-02  0.442E-02
  -2.079  0.671E-02  0.671E-02
  -2.069  0.928E-02  0.928E-02
  -2.059  0.113E-01  0.113E-01
  -2.049  0.122E-01  0.122E-01
  -2.039  0.131E-01  0.131E-01
  -2.029  0.140E-01  0.140E-01
  -2.019  0.148E-01  0.148E-01
  -2.009  0.156E-01  0.156E-01
  -1.999  0.165E-01  0.165E-01
  -1.989  0.173E-01  0.173E-01
  -1.979  0.178E-01  0.178E-01
  -1.969  0.182E-01  0.182E-01
  -1.959  0.187E-01  0.187E-01
  -1.949  0.191E-01  0.191E-01
  -1.939  0.195E-01  0.195E-01
  -1.929  0.200E-01  0.200E-01
  -1.919  0.204E-01  0.204E-01
  -1.909  0.208E-01  0.208E-01
  -1.899  0.212E-01  0.212E-01
  -1.889  0.216E-01  0.216E-01
  -1.879  0.219E-01  0.219E-01
  -1.869  0.222E-01  0.222E-01
  -1.859  0.224E-01  0.224E-01
  -1.849  0.226E-01  0.226E-01
  -1.839  0.228E-01  0.228E-01
  -1.829  0.230E-01  0.230E-01
  -1.819  0.232E-01  0.232E-01
  -1.809  0.233E-01  0.233E-01
  -1.799  0.235E-01  0.235E-01
  -1.789  0.222E-01  0.222E-01
  -1.779  0.221E-01  0.221E-01
  -1.769  0.221E-01  0.221E-01
  -1.759  0.220E-01  0.220E-01
  -1.749  0.219E-01  0.219E-01
  -1.739  0.219E-01  0.219E-01
  -1.729  0.220E-01  0.220E-01
  -1.719  0.221E-01  0.221E-01
  -1.709  0.223E-01  0.223E-01
  -1.699  0.224E-01  0.224E-01
  -1.689  0.225E-01  0.225E-01
  -1.679  0.227E-01  0.227E-01
  -1.669  0.228E-01  0.228E-01
  -1.659  0.230E-01  0.230E-01
  -1.649  0.232E-01  0.232E-01
  -1.639  0.235E-01  0.235E-01
  -1.629  0.238E-01  0.238E-01
  -1.619  0.241E-01  0.241E-01
  -1.609  0.244E-01  0.244E-01
  -1.599  0.248E-01  0.248E-01
  -1.589  0.252E-01  0.252E-01
  -1.579  0.257E-01  0.257E-01
  -1.569  0.263E-01  0.263E-01
  -1.559  0.270E-01  0.270E-01
  -1.549  0.276E-01  0.276E-01
  -1.539  0.283E-01  0.283E-01
  -1.529  0.290E-01  0.290E-01
  -1.519  0.298E-01  0.298E-01
  -1.509  0.306E-01  0.306E-01
  -1.499  0.314E-01  0.314E-01
  -1.489  0.322E-01  0.322E-01
  -1.479  0.331E-01  0.331E-01
  -1.469  0.339E-01  0.339E-01
  -1.459  0.348E-01  0.348E-01
  -1.449  0.500E-01  0.500E-01
  -1.439  0.489E-01  0.489E-01
  -1.429  0.479E-01  0.479E-01
  -1.419  0.468E-01  0.468E-01
  -1.409  0.458E-01  0.458E-01
  -1.399  0.448E-01  0.448E-01
  -1.389  0.437E-01  0.437E-01
  -1.379  0.428E-01  0.428E-01
  -1.369  0.418E-01  0.418E-01
  -1.359  0.408E-01  0.408E-01
  -1.349  0.398E-01  0.398E-01
  -1.339  0.389E-01  0.389E-01
  -1.329  0.379E-01  0.379E-01
  -1.319  0.369E-01  0.369E-01
  -1.309  0.359E-01  0.359E-01
  -1.299  0.350E-01  0.350E-01
  -1.289  0.478E-01  0.478E-01
  -1.279  0.770E-01  0.770E-01
  -1.269  0.260E-01  0.260E-01
  -1.259  0.257E-01  0.257E-01
  -1.249  0.254E-01  0.254E-01
  -1.239  0.251E-01  0.251E-01
  -1.229  0.247E-01  0.247E-01
  -1.219  0.244E-01  0.244E-01
  -1.209  0.241E-01  0.241E-01
  -1.199  0.238E-01  0.238E-01
  -1.189  0.235E-01  0.235E-01
  -1.179  0.232E-01  0.232E-01
  -1.169  0.229E-01  0.229E-01
  -1.159  0.226E-01  0.226E-01
  -1.149  0.223E-01  0.223E-01
  -1.139  0.220E-01  0.220E-01
  -1.129  0.218E-01  0.218E-01
  -1.119  0.215E-01  0.215E-01
  -1.109  0.212E-01  0.212E-01
  -1.099  0.210E-01  0.210E-01
  -1.089  0.207E-01  0.207E-01
  -1.079  0.205E-01  0.205E-01
  -1.069  0.204E-01  0.204E-01
  -1.059  0.203E-01  0.203E-01
  -1.049  0.202E-01  0.202E-01
  -1.039  0.201E-01  0.201E-01
  -1.029  0.200E-01  0.200E-01
  -1.019  0.226E-01  0.226E-01
  -1.009  0.395E-01  0.395E-01
  -0.999  0.552E-01  0.552E-01
  -0.989  0.181E-01  0.181E-01
  -0.979  0.180E-01  0.180E-01
  -0.969  0.179E-01  0.179E-01
  -0.959  0.178E-01  0.178E-01
  -0.949  0.176E-01  0.176E-01
  -0.939  0.175E-01  0.175E-01
  -0.929  0.174E-01  0.174E-01
  -0.919  0.175E-01  0.175E-01
  -0.909  0.175E-01  0.175E-01
  -0.899  0.175E-01  0.175E-01
  -0.889  0.175E-01  0.175E-01
  -0.879  0.175E-01  0.175E-01
  -0.869  0.175E-01  0.175E-01
  -0.859  0.175E-01  0.175E-01
  -0.849  0.175E-01  0.175E-01
  -0.839  0.174E-01  0.174E-01
  -0.829  0.174E-01  0.174E-01
  -0.819  0.173E-01  0.173E-01
  -0.809  0.172E-01  0.172E-01
  -0.799  0.172E-01  0.172E-01
  -0.789  0.167E-01  0.167E-01
  -0.779  0.166E-01  0.166E-01
  -0.769  0.164E-01  0.164E-01
  -0.759  0.164E-01  0.164E-01
  -0.749  0.164E-01  0.164E-01
  -0.739  0.164E-01  0.164E-01
  -0.729  0.164E-01  0.164E-01
  -0.719  0.164E-01  0.164E-01
  -0.709  0.164E-01  0.164E-01
  -0.699  0.164E-01  0.164E-01
  -0.689  0.164E-01  0.164E-01
  -0.679  0.171E-01  0.171E-01
  -0.669  0.187E-01  0.187E-01
  -0.659  0.206E-01  0.206E-01
  -0.649  0.223E-01  0.223E-01
  -0.639  0.241E-01  0.241E-01
  -0.629  0.261E-01  0.261E-01
  -0.619  0.280E-01  0.280E-01
  -0.609  0.185E-01  0.185E-01
  -0.599  0.185E-01  0.185E-01
  -0.589  0.186E-01  0.186E-01
  -0.579  0.186E-01  0.186E-01
  -0.569  0.187E-01  0.187E-01
  -0.559  0.187E-01  0.187E-01
  -0.549  0.188E-01  0.188E-01
  -0.539  0.189E-01  0.189E-01
  -0.529  0.192E-01  0.192E-01
  -0.519  0.229E-01  0.229E-01
  -0.509  0.262E-01  0.262E-01
  -0.499  0.292E-01  0.292E-01
  -0.489  0.512E-01  0.512E-01
  -0.479  0.446E-01  0.446E-01
  -0.469  0.246E-01  0.246E-01
  -0.459  0.248E-01  0.248E-01
  -0.449  0.250E-01  0.250E-01
  -0.439  0.251E-01  0.251E-01
  -0.429  0.253E-01  0.253E-01
  -0.419  0.251E-01  0.251E-01
  -0.409  0.249E-01  0.249E-01
  -0.399  0.247E-01  0.247E-01
  -0.389  0.245E-01  0.245E-01
  -0.379  0.244E-01  0.244E-01
  -0.369  0.242E-01  0.242E-01
  -0.359  0.240E-01  0.240E-01
  -0.349  0.239E-01  0.239E-01
  -0.339  0.238E-01  0.238E-01
  -0.329  0.236E-01  0.236E-01
  -0.319  0.234E-01  0.234E-01
  -0.309  0.232E-01  0.232E-01
  -0.299  0.230E-01  0.230E-01
  -0.289  0.228E-01  0.228E-01
  -0.279  0.226E-01  0.226E-01
  -0.269  0.227E-01  0.227E-01
  -0.259  0.230E-01  0.230E-01
  -0.249  0.234E-01  0.234E-01
  -0.239  0.237E-01  0.237E-01
  -0.229  0.240E-01  0.240E-01
  -0.219  0.243E-01  0.243E-01
  -0.209  0.314E-01  0.314E-01
  -0.199  0.310E-01  0.310E-01
  -0.189  0.303E-01  0.303E-01
  -0.179  0.294E-01  0.294E-01
  -0.169  0.238E-01  0.238E-01
  -0.159  0.240E-01  0.240E-01
  -0.149  0.231E-01  0.231E-01
  -0.139  0.226E-01  0.226E-01
  -0.129  0.222E-01  0.222E-01
  -0.119  0.219E-01  0.219E-01
  -0.109  0.215E-01  0.215E-01
  -0.099  0.211E-01  0.211E-01
  -0.089  0.208E-01  0.208E-01
  -0.079  0.204E-01  0.204E-01
  -0.069  0.201E-01  0.201E-01
  -0.059  0.198E-01  0.198E-01
  -0.049  0.194E-01  0.194E-01
  -0.039  0.192E-01  0.192E-01
  -0.029  0.189E-01  0.189E-01
  -0.019  0.187E-01  0.187E-01
  -0.009  0.185E-01  0.185E-01
   0.001  0.183E-01  0.183E-01
   0.011  0.183E-01  0.183E-01
   0.021  0.182E-01  0.182E-01
   0.031  0.181E-01  0.181E-01
   0.041  0.180E-01  0.180E-01
   0.051  0.179E-01  0.179E-01
   0.061  0.179E-01  0.179E-01
   0.071  0.178E-01  0.178E-01
   0.081  0.179E-01  0.179E-01
   0.091  0.180E-01  0.180E-01
   0.101  0.182E-01  0.182E-01
   0.111  0.181E-01  0.181E-01
   0.121  0.219E-01  0.219E-01
   0.131  0.212E-01  0.212E-01
   0.141  0.206E-01  0.206E-01
   0.151  0.178E-01  0.178E-01
   0.161  0.173E-01  0.173E-01
   0.171  0.168E-01  0.168E-01
   0.181  0.164E-01  0.164E-01
   0.191  0.159E-01  0.159E-01
   0.201  0.159E-01  0.159E-01
   0.211  0.160E-01  0.160E-01
   0.221  0.160E-01  0.160E-01
   0.231  0.161E-01  0.161E-01
   0.241  0.163E-01  0.163E-01
   0.251  0.164E-01  0.164E-01
   0.261  0.166E-01  0.166E-01
   0.271  0.167E-01  0.167E-01
   0.281  0.169E-01  0.169E-01
   0.291  0.170E-01  0.170E-01
   0.301  0.172E-01  0.172E-01
   0.311  0.173E-01  0.173E-01
   0.321  0.175E-01  0.175E-01
   0.331  0.178E-01  0.178E-01
   0.341  0.181E-01  0.181E-01
   0.351  0.259E-01  0.259E-01
   0.361  0.316E-01  0.316E-01
   0.371  0.369E-01  0.369E-01
   0.381  0.271E-01  0.271E-01
   0.391  0.276E-01  0.276E-01
   0.401  0.270E-01  0.270E-01
   0.411  0.261E-01  0.261E-01
   0.421  0.253E-01  0.253E-01
   0.431  0.244E-01  0.244E-01
   0.441  0.236E-01  0.236E-01
   0.451  0.228E-01  0.228E-01
   0.461  0.221E-01  0.221E-01
   0.471  0.213E-01  0.213E-01
   0.481  0.209E-01  0.209E-01
   0.491  0.207E-01  0.207E-01
   0.501  0.205E-01  0.205E-01
   0.511  0.202E-01  0.202E-01
   0.521  0.200E-01  0.200E-01
   0.531  0.198E-01  0.198E-01
   0.541  0.200E-01  0.200E-01
   0.551  0.201E-01  0.201E-01
   0.561  0.215E-01  0.215E-01
   0.571  0.233E-01  0.233E-01
   0.581  0.221E-01  0.221E-01
   0.591  0.210E-01  0.210E-01
   0.601  0.199E-01  0.199E-01
   0.611  0.188E-01  0.188E-01
   0.621  0.182E-01  0.182E-01
   0.631  0.181E-01  0.181E-01
   0.641  0.183E-01  0.183E-01
   0.651  0.263E-01  0.263E-01
   0.661  0.183E-01  0.183E-01
   0.671  0.120E-01  0.120E-01
   0.681  0.595E-02  0.595E-02
   0.691  0.488E-02  0.488E-02
   0.701  0.493E-02  0.493E-02
   0.711  0.498E-02  0.498E-02
   0.721  0.502E-02  0.502E-02
   0.731  0.507E-02  0.507E-02
   0.741  0.512E-02  0.512E-02
   0.751  0.517E-02  0.517E-02
   0.761  0.522E-02  0.522E-02
   0.771  0.527E-02  0.527E-02
   0.781  0.533E-02  0.533E-02
   0.791  0.538E-02  0.538E-02
   0.801  0.543E-02  0.543E-02
   0.811  0.548E-02  0.548E-02
   0.821  0.553E-02  0.553E-02
   0.831  0.559E-02  0.559E-02
   0.841  0.564E-02  0.564E-02
   0.851  0.569E-02  0.569E-02
   0.861  0.575E-02  0.575E-02
   0.871  0.580E-02  0.580E-02
   0.881  0.586E-02  0.586E-02
   0.891  0.591E-02  0.591E-02
   0.901  0.597E-02  0.597E-02
   0.911  0.604E-02  0.604E-02
   0.921  0.611E-02  0.611E-02
   0.931  0.617E-02  0.617E-02
   0.941  0.624E-02  0.624E-02
   0.951  0.630E-02  0.630E-02
   0.961  0.637E-02  0.637E-02
   0.971  0.643E-02  0.643E-02
   0.981  0.649E-02  0.649E-02
   0.991  0.656E-02  0.656E-02
   1.001  0.662E-02  0.662E-02
   1.011  0.668E-02  0.668E-02
   1.021  0.675E-02  0.675E-02
   1.031  0.681E-02  0.681E-02
   1.041  0.687E-02  0.687E-02
   1.051  0.693E-02  0.693E-02
   1.061  0.699E-02  0.699E-02
   1.071  0.703E-02  0.703E-02
   1.081  0.708E-02  0.708E-02
   1.091  0.713E-02  0.713E-02
   1.101  0.718E-02  0.718E-02
   1.111  0.723E-02  0.723E-02
   1.121  0.727E-02  0.727E-02
   1.131  0.736E-02  0.736E-02
   1.141  0.747E-02  0.747E-02
   1.151  0.754E-02  0.754E-02
   1.161  0.759E-02  0.759E-02
   1.171  0.764E-02  0.764E-02
   1.181  0.769E-02  0.769E-02
   1.191  0.774E-02  0.774E-02
   1.201  0.779E-02  0.779E-02
   1.211  0.783E-02  0.783E-02
   1.221  0.788E-02  0.788E-02
   1.231  0.793E-02  0.793E-02
   1.241  0.797E-02  0.797E-02
   1.251  0.802E-02  0.802E-02
   1.261  0.824E-02  0.824E-02
   1.271  0.830E-02  0.830E-02
   1.281  0.836E-02  0.836E-02
   1.291  0.842E-02  0.842E-02
   1.301  0.848E-02  0.848E-02
   1.311  0.853E-02  0.853E-02
   1.321  0.859E-02  0.859E-02
   1.331  0.864E-02  0.864E-02
   1.341  0.869E-02  0.869E-02
   1.351  0.875E-02  0.875E-02
   1.361  0.880E-02  0.880E-02
   1.371  0.886E-02  0.886E-02
   1.381  0.891E-02  0.891E-02
   1.391  0.897E-02  0.897E-02
   1.401  0.902E-02  0.902E-02
   1.411  0.909E-02  0.909E-02
   1.421  0.916E-02  0.916E-02
   1.431  0.923E-02  0.923E-02
   1.441  0.930E-02  0.930E-02
   1.451  0.937E-02  0.937E-02
   1.461  0.943E-02  0.943E-02
   1.471  0.949E-02  0.949E-02
   1.481  0.955E-02  0.955E-02
   1.491  0.961E-02  0.961E-02
   1.501  0.965E-02  0.965E-02
   1.511  0.968E-02  0.968E-02
   1.521  0.970E-02  0.970E-02
   1.531  0.974E-02  0.974E-02
   1.541  0.980E-02  0.980E-02
   1.551  0.985E-02  0.985E-02
   1.561  0.990E-02  0.990E-02
   1.571  0.994E-02  0.994E-02
   1.581  0.998E-02  0.998E-02
   1.591  0.100E-01  0.100E-01
   1.601  0.100E-01  0.100E-01
   1.611  0.101E-01  0.101E-01
   1.621  0.101E-01  0.101E-01
   1.631  0.101E-01  0.101E-01
   1.641  0.101E-01  0.101E-01
   1.651  0.101E-01  0.101E-01
   1.661  0.101E-01  0.101E-01
   1.671  0.101E-01  0.101E-01
   1.681  0.101E-01  0.101E-01
   1.691  0.101E-01  0.101E-01
   1.701  0.101E-01  0.101E-01
   1.711  0.101E-01  0.101E-01
   1.721  0.101E-01  0.101E-01
   1.731  0.101E-01  0.101E-01
   1.741  0.100E-01  0.100E-01
   1.751  0.101E-01  0.101E-01
   1.761  0.101E-01  0.101E-01
   1.771  0.102E-01  0.102E-01
   1.781  0.106E-01  0.106E-01
   1.791  0.106E-01  0.106E-01
   1.801  0.106E-01  0.106E-01
   1.811  0.106E-01  0.106E-01
   1.821  0.105E-01  0.105E-01
   1.831  0.105E-01  0.105E-01
   1.841  0.108E-01  0.108E-01
   1.851  0.108E-01  0.108E-01
   1.861  0.108E-01  0.108E-01
   1.871  0.108E-01  0.108E-01
   1.881  0.106E-01  0.106E-01
   1.891  0.122E-01  0.122E-01
   1.901  0.966E-02  0.966E-02
   1.911  0.136E-01  0.136E-01
   1.921  0.875E-02  0.875E-02
   1.931  0.840E-02  0.840E-02
   1.941  0.814E-02  0.814E-02
   1.951  0.788E-02  0.788E-02
   1.961  0.764E-02  0.764E-02
   1.971  0.742E-02  0.742E-02
   1.981  0.722E-02  0.722E-02
   1.991  0.704E-02  0.704E-02
   2.001  0.688E-02  0.688E-02
   2.011  0.698E-02  0.698E-02
   2.021  0.729E-02  0.729E-02
   2.031  0.779E-02  0.779E-02
   2.041  0.622E-02  0.622E-02
   2.051  0.621E-02  0.621E-02
   2.061  0.621E-02  0.621E-02
   2.071  0.620E-02  0.620E-02
   2.081  0.619E-02  0.619E-02
   2.091  0.618E-02  0.618E-02
   2.101  0.617E-02  0.617E-02
   2.111  0.617E-02  0.617E-02
   2.121  0.616E-02  0.616E-02
   2.131  0.615E-02  0.615E-02
   2.141  0.614E-02  0.614E-02
   2.151  0.613E-02  0.613E-02
   2.161  0.612E-02  0.612E-02
   2.171  0.611E-02  0.611E-02
   2.181  0.610E-02  0.610E-02
   2.191  0.609E-02  0.609E-02
   2.201  0.608E-02  0.608E-02
   2.211  0.608E-02  0.608E-02
   2.221  0.607E-02  0.607E-02
   2.231  0.606E-02  0.606E-02
   2.241  0.605E-02  0.605E-02
   2.251  0.604E-02  0.604E-02
   2.261  0.603E-02  0.603E-02
   2.271  0.602E-02  0.602E-02
   2.281  0.601E-02  0.601E-02
   2.291  0.599E-02  0.599E-02
   2.301  0.598E-02  0.598E-02
   2.311  0.597E-02  0.597E-02
   2.321  0.596E-02  0.596E-02
   2.331  0.653E-02  0.653E-02
   2.341  0.715E-02  0.715E-02
   2.351  0.776E-02  0.776E-02
   2.361  0.789E-02  0.789E-02
   2.371  0.802E-02  0.802E-02
   2.381  0.815E-02  0.815E-02
   2.391  0.828E-02  0.828E-02
   2.401  0.841E-02  0.841E-02
   2.411  0.854E-02  0.854E-02
   2.421  0.868E-02  0.868E-02
   2.431  0.881E-02  0.881E-02
   2.441  0.895E-02  0.895E-02
   2.451  0.909E-02  0.909E-02
   2.461  0.923E-02  0.923E-02
   2.471  0.937E-02  0.937E-02
   2.481  0.951E-02  0.951E-02
   2.491  0.965E-02  0.965E-02
   2.501  0.979E-02  0.979E-02
   2.511  0.994E-02  0.994E-02
   2.521  0.101E-01  0.101E-01
   2.531  0.102E-01  0.102E-01
   2.541  0.104E-01  0.104E-01
   2.551  0.105E-01  0.105E-01
   2.561  0.107E-01  0.107E-01
   2.571  0.108E-01  0.108E-01
   2.581  0.109E-01  0.109E-01
   2.591  0.111E-01  0.111E-01
   2.601  0.112E-01  0.112E-01
   2.611  0.113E-01  0.113E-01
   2.621  0.114E-01  0.114E-01
   2.631  0.116E-01  0.116E-01
   2.641  0.117E-01  0.117E-01
   2.651  0.118E-01  0.118E-01
   2.661  0.119E-01  0.119E-01
   2.671  0.120E-01  0.120E-01
   2.681  0.122E-01  0.122E-01
   2.691  0.123E-01  0.123E-01
   2.701  0.124E-01  0.124E-01
   2.711  0.125E-01  0.125E-01
   2.721  0.126E-01  0.126E-01
   2.731  0.214E-01  0.214E-01
   2.741  0.229E-01  0.229E-01
   2.751  0.244E-01  0.244E-01
   2.761  0.259E-01  0.259E-01
   2.771  0.275E-01  0.275E-01
   2.781  0.291E-01  0.291E-01
   2.791  0.306E-01  0.306E-01
   2.801  0.322E-01  0.322E-01
   2.811  0.339E-01  0.339E-01
   2.821  0.355E-01  0.355E-01
   2.831  0.372E-01  0.372E-01
   2.841  0.388E-01  0.388E-01
   2.851  0.405E-01  0.405E-01
   2.861  0.422E-01  0.422E-01
   2.871  0.439E-01  0.439E-01
   2.881  0.455E-01  0.455E-01
   2.891  0.470E-01  0.470E-01
   2.901  0.217E+00  0.217E+00
   2.911  0.435E+00  0.435E+00
   2.921  0.354E+00  0.354E+00
   2.931  0.422E+00  0.422E+00
   2.941  0.694E+00  0.694E+00
   2.951  0.205E+00  0.205E+00
   2.961  0.163E+00  0.163E+00
   2.971  0.120E+00  0.120E+00
   2.981  0.738E-01  0.738E-01
   2.991  0.660E-01  0.660E-01
   3.001  0.589E-01  0.589E-01
   3.011  0.525E-01  0.525E-01
   3.021  0.496E-01  0.496E-01
   3.031  0.477E-01  0.477E-01
   3.041  0.459E-01  0.459E-01
   3.051  0.441E-01  0.441E-01
   3.061  0.423E-01  0.423E-01
   3.071  0.405E-01  0.405E-01
   3.081  0.387E-01  0.387E-01
   3.091  0.369E-01  0.369E-01
   3.101  0.351E-01  0.351E-01
   3.111  0.334E-01  0.334E-01
   3.121  0.317E-01  0.317E-01
   3.131  0.299E-01  0.299E-01
   3.141  0.283E-01  0.283E-01
   3.151  0.266E-01  0.266E-01
   3.161  0.249E-01  0.249E-01
   3.171  0.245E-01  0.245E-01
   3.181  0.244E-01  0.244E-01
   3.191  0.242E-01  0.242E-01
   3.201  0.240E-01  0.240E-01
   3.211  0.237E-01  0.237E-01
   3.221  0.234E-01  0.234E-01
   3.231  0.230E-01  0.230E-01
   3.241  0.225E-01  0.225E-01
   3.251  0.220E-01  0.220E-01
   3.261  0.214E-01  0.214E-01
   3.271  0.207E-01  0.207E-01
   3.281  0.200E-01  0.200E-01
   3.291  0.154E-01  0.154E-01
   3.301  0.143E-01  0.143E-01
   3.311  0.133E-01  0.133E-01
   3.321  0.122E-01  0.122E-01
   3.331  0.112E-01  0.112E-01
   3.341  0.102E-01  0.102E-01
   3.351  0.929E-02  0.929E-02
   3.361  0.836E-02  0.836E-02
   3.371  0.745E-02  0.745E-02
   3.381  0.657E-02  0.657E-02
   3.391  0.572E-02  0.572E-02
   3.401  0.489E-02  0.489E-02
   3.411  0.409E-02  0.409E-02
   3.421  0.331E-02  0.331E-02
   3.431  0.257E-02  0.257E-02
   3.441  0.184E-02  0.184E-02
   3.451  0.115E-02  0.115E-02
   3.461  0.481E-03  0.481E-03
   3.471  0.000E+00  0.000E+00
