# E (eV)   ldos(E)   pdos(E)    pdos(E)    pdos(E)   
 -17.719  0.000E+00  0.000E+00  0.000E+00  0.000E+00
 -17.709  0.111E-01  0.371E-03  0.997E-02  0.726E-03
 -17.699  0.244E-01  0.739E-03  0.207E-01  0.290E-02
 -17.689  0.147E-01  0.407E-03  0.119E-01  0.237E-02
 -17.679  0.171E-01  0.436E-03  0.133E-01  0.336E-02
 -17.669  0.196E-01  0.465E-03  0.147E-01  0.447E-02
 -17.659  0.223E-01  0.493E-03  0.161E-01  0.569E-02
 -17.649  0.224E-01  0.463E-03  0.157E-01  0.622E-02
 -17.639  0.218E-01  0.424E-03  0.148E-01  0.648E-02
 -17.629  0.230E-01  0.425E-03  0.153E-01  0.726E-02
 -17.619  0.247E-01  0.433E-03  0.161E-01  0.819E-02
 -17.609  0.265E-01  0.442E-03  0.169E-01  0.916E-02
 -17.599  0.283E-01  0.450E-03  0.177E-01  0.102E-01
 -17.589  0.302E-01  0.458E-03  0.186E-01  0.112E-01
 -17.579  0.322E-01  0.466E-03  0.194E-01  0.123E-01
 -17.569  0.310E-01  0.431E-03  0.184E-01  0.121E-01
 -17.559  0.319E-01  0.427E-03  0.187E-01  0.128E-01
 -17.549  0.328E-01  0.423E-03  0.189E-01  0.134E-01
 -17.539  0.337E-01  0.418E-03  0.192E-01  0.140E-01
 -17.529  0.349E-01  0.419E-03  0.197E-01  0.148E-01
 -17.519  0.364E-01  0.422E-03  0.203E-01  0.157E-01
 -17.509  0.379E-01  0.425E-03  0.209E-01  0.166E-01
 -17.499  0.394E-01  0.428E-03  0.215E-01  0.175E-01
 -17.489  0.409E-01  0.430E-03  0.221E-01  0.184E-01
 -17.479  0.424E-01  0.433E-03  0.227E-01  0.193E-01
 -17.469  0.427E-01  0.423E-03  0.226E-01  0.197E-01
 -17.459  0.425E-01  0.409E-03  0.223E-01  0.198E-01
 -17.449  0.432E-01  0.404E-03  0.225E-01  0.203E-01
 -17.439  0.442E-01  0.403E-03  0.228E-01  0.210E-01
 -17.429  0.453E-01  0.401E-03  0.232E-01  0.217E-01
 -17.419  0.463E-01  0.400E-03  0.236E-01  0.224E-01
 -17.409  0.474E-01  0.398E-03  0.239E-01  0.231E-01
 -17.399  0.484E-01  0.397E-03  0.243E-01  0.237E-01
 -17.389  0.496E-01  0.397E-03  0.247E-01  0.245E-01
 -17.379  0.509E-01  0.397E-03  0.252E-01  0.253E-01
 -17.369  0.522E-01  0.397E-03  0.256E-01  0.262E-01
 -17.359  0.535E-01  0.397E-03  0.261E-01  0.270E-01
 -17.349  0.548E-01  0.397E-03  0.266E-01  0.278E-01
 -17.339  0.561E-01  0.397E-03  0.271E-01  0.287E-01
 -17.329  0.555E-01  0.384E-03  0.266E-01  0.285E-01
 -17.319  0.562E-01  0.380E-03  0.268E-01  0.290E-01
 -17.309  0.568E-01  0.375E-03  0.269E-01  0.295E-01
 -17.299  0.574E-01  0.371E-03  0.271E-01  0.300E-01
 -17.289  0.585E-01  0.370E-03  0.274E-01  0.307E-01
 -17.279  0.595E-01  0.368E-03  0.278E-01  0.314E-01
 -17.269  0.606E-01  0.367E-03  0.281E-01  0.321E-01
 -17.259  0.616E-01  0.365E-03  0.285E-01  0.328E-01
 -17.249  0.627E-01  0.363E-03  0.288E-01  0.335E-01
 -17.239  0.638E-01  0.361E-03  0.292E-01  0.342E-01
 -17.229  0.648E-01  0.360E-03  0.295E-01  0.349E-01
 -17.219  0.660E-01  0.358E-03  0.299E-01  0.357E-01
 -17.209  0.672E-01  0.357E-03  0.303E-01  0.365E-01
 -17.199  0.684E-01  0.355E-03  0.307E-01  0.373E-01
 -17.189  0.696E-01  0.354E-03  0.312E-01  0.381E-01
 -17.179  0.703E-01  0.350E-03  0.313E-01  0.386E-01
 -17.169  0.704E-01  0.343E-03  0.312E-01  0.388E-01
 -17.159  0.712E-01  0.339E-03  0.314E-01  0.394E-01
 -17.149  0.721E-01  0.336E-03  0.317E-01  0.400E-01
 -17.139  0.730E-01  0.333E-03  0.320E-01  0.407E-01
 -17.129  0.739E-01  0.330E-03  0.323E-01  0.413E-01
 -17.119  0.749E-01  0.327E-03  0.325E-01  0.420E-01
 -17.109  0.759E-01  0.324E-03  0.329E-01  0.427E-01
 -17.099  0.771E-01  0.322E-03  0.333E-01  0.436E-01
 -17.089  0.784E-01  0.320E-03  0.336E-01  0.444E-01
 -17.079  0.796E-01  0.318E-03  0.340E-01  0.452E-01
 -17.069  0.808E-01  0.316E-03  0.344E-01  0.461E-01
 -17.059  0.821E-01  0.313E-03  0.348E-01  0.469E-01
 -17.049  0.833E-01  0.310E-03  0.352E-01  0.478E-01
 -17.039  0.846E-01  0.308E-03  0.356E-01  0.486E-01
 -17.029  0.858E-01  0.305E-03  0.360E-01  0.495E-01
 -17.019  0.873E-01  0.303E-03  0.365E-01  0.505E-01
 -17.009  0.887E-01  0.300E-03  0.370E-01  0.514E-01
 -16.999  0.895E-01  0.295E-03  0.372E-01  0.521E-01
 -16.989  0.907E-01  0.291E-03  0.375E-01  0.529E-01
 -16.979  0.919E-01  0.288E-03  0.379E-01  0.537E-01
 -16.969  0.931E-01  0.284E-03  0.383E-01  0.546E-01
 -16.959  0.948E-01  0.281E-03  0.388E-01  0.557E-01
 -16.949  0.965E-01  0.279E-03  0.394E-01  0.569E-01
 -16.939  0.982E-01  0.276E-03  0.399E-01  0.580E-01
 -16.929  0.999E-01  0.273E-03  0.405E-01  0.592E-01
 -16.919  0.102E+00  0.269E-03  0.410E-01  0.604E-01
 -16.909  0.104E+00  0.267E-03  0.418E-01  0.619E-01
 -16.899  0.107E+00  0.265E-03  0.427E-01  0.636E-01
 -16.889  0.109E+00  0.262E-03  0.436E-01  0.653E-01
 -16.879  0.112E+00  0.260E-03  0.445E-01  0.671E-01
 -16.869  0.115E+00  0.256E-03  0.455E-01  0.689E-01
 -16.859  0.117E+00  0.253E-03  0.464E-01  0.708E-01
 -16.849  0.120E+00  0.249E-03  0.473E-01  0.726E-01
 -16.839  0.123E+00  0.244E-03  0.483E-01  0.745E-01
 -16.829  0.128E+00  0.243E-03  0.501E-01  0.778E-01
 -16.819  0.133E+00  0.240E-03  0.520E-01  0.812E-01
 -16.809  0.139E+00  0.237E-03  0.538E-01  0.846E-01
 -16.799  0.144E+00  0.233E-03  0.556E-01  0.879E-01
 -16.789  0.151E+00  0.232E-03  0.582E-01  0.925E-01
 -16.779  0.158E+00  0.229E-03  0.609E-01  0.973E-01
 -16.769  0.174E+00  0.237E-03  0.666E-01  0.107E+00
 -16.759  0.192E+00  0.241E-03  0.730E-01  0.118E+00
 -16.749  0.330E+00  0.322E-03  0.125E+00  0.204E+00
 -16.739  0.158E+00  0.201E-03  0.601E-01  0.981E-01
 -16.729  0.149E+00  0.185E-03  0.562E-01  0.922E-01
 -16.719  0.139E+00  0.170E-03  0.522E-01  0.861E-01
 -16.709  0.128E+00  0.156E-03  0.483E-01  0.799E-01
 -16.699  0.118E+00  0.143E-03  0.443E-01  0.737E-01
 -16.689  0.108E+00  0.130E-03  0.403E-01  0.673E-01
 -16.679  0.973E-01  0.119E-03  0.363E-01  0.609E-01
 -16.669  0.993E-01  0.116E-03  0.370E-01  0.622E-01
 -16.659  0.102E+00  0.115E-03  0.379E-01  0.641E-01
 -16.649  0.105E+00  0.115E-03  0.387E-01  0.658E-01
 -16.639  0.107E+00  0.117E-03  0.396E-01  0.676E-01
 -16.629  0.110E+00  0.120E-03  0.404E-01  0.693E-01
 -16.619  0.730E-01  0.845E-04  0.268E-01  0.461E-01
 -16.609  0.756E-01  0.859E-04  0.277E-01  0.478E-01
 -16.599  0.759E-01  0.852E-04  0.277E-01  0.480E-01
 -16.589  0.728E-01  0.805E-04  0.266E-01  0.462E-01
 -16.579  0.698E-01  0.759E-04  0.254E-01  0.443E-01
 -16.569  0.667E-01  0.714E-04  0.242E-01  0.425E-01
 -16.559  0.637E-01  0.671E-04  0.230E-01  0.406E-01
 -16.549  0.606E-01  0.628E-04  0.218E-01  0.386E-01
 -16.539  0.574E-01  0.586E-04  0.207E-01  0.367E-01
 -16.529  0.543E-01  0.545E-04  0.195E-01  0.348E-01
 -16.519  0.511E-01  0.505E-04  0.183E-01  0.328E-01
 -16.509  0.479E-01  0.467E-04  0.171E-01  0.308E-01
 -16.499  0.447E-01  0.429E-04  0.159E-01  0.287E-01
 -16.489  0.415E-01  0.392E-04  0.147E-01  0.267E-01
 -16.479  0.387E-01  0.361E-04  0.137E-01  0.250E-01
 -16.469  0.391E-01  0.353E-04  0.138E-01  0.253E-01
 -16.459  0.395E-01  0.348E-04  0.139E-01  0.255E-01
 -16.449  0.398E-01  0.346E-04  0.140E-01  0.258E-01
 -16.439  0.401E-01  0.346E-04  0.141E-01  0.260E-01
 -16.429  0.404E-01  0.349E-04  0.141E-01  0.263E-01
 -16.419  0.408E-01  0.354E-04  0.142E-01  0.265E-01
 -16.409  0.410E-01  0.362E-04  0.143E-01  0.267E-01
 -16.399  0.000E+00  0.000E+00  0.000E+00  0.000E+00
 -16.389  0.000E+00  0.000E+00  0.000E+00  0.000E+00
 -16.379  0.000E+00  0.000E+00  0.000E+00  0.000E+00
 -16.369  0.000E+00  0.000E+00  0.000E+00  0.000E+00
 -16.359  0.000E+00  0.000E+00  0.000E+00  0.000E+00
 -16.349  0.000E+00  0.000E+00  0.000E+00  0.000E+00
 -16.339  0.000E+00  0.000E+00  0.000E+00  0.000E+00
 -16.329  0.000E+00  0.000E+00  0.000E+00  0.000E+00
 -16.319  0.000E+00  0.000E+00  0.000E+00  0.000E+00
 -16.309  0.000E+00  0.000E+00  0.000E+00  0.000E+00
 -16.299  0.000E+00  0.000E+00  0.000E+00  0.000E+00
 -16.289  0.000E+00  0.000E+00  0.000E+00  0.000E+00
 -16.279  0.000E+00  0.000E+00  0.000E+00  0.000E+00
 -16.269  0.000E+00  0.000E+00  0.000E+00  0.000E+00
 -16.259  0.000E+00  0.000E+00  0.000E+00  0.000E+00
 -16.249  0.000E+00  0.000E+00  0.000E+00  0.000E+00
 -16.239  0.000E+00  0.000E+00  0.000E+00  0.000E+00
 -16.229  0.000E+00  0.000E+00  0.000E+00  0.000E+00
 -16.219  0.000E+00  0.000E+00  0.000E+00  0.000E+00
 -16.209  0.000E+00  0.000E+00  0.000E+00  0.000E+00
 -16.199  0.000E+00  0.000E+00  0.000E+00  0.000E+00
 -16.189  0.000E+00  0.000E+00  0.000E+00  0.000E+00
 -16.179  0.000E+00  0.000E+00  0.000E+00  0.000E+00
 -16.169  0.000E+00  0.000E+00  0.000E+00  0.000E+00
 -16.159  0.000E+00  0.000E+00  0.000E+00  0.000E+00
 -16.149  0.480E-01  0.398E-04  0.158E-01  0.322E-01
 -16.139  0.467E-01  0.424E-04  0.153E-01  0.313E-01
 -16.129  0.454E-01  0.443E-04  0.149E-01  0.304E-01
 -16.119  0.442E-01  0.455E-04  0.145E-01  0.296E-01
 -16.109  0.429E-01  0.461E-04  0.141E-01  0.288E-01
 -16.099  0.417E-01  0.459E-04  0.137E-01  0.280E-01
 -16.089  0.406E-01  0.451E-04  0.133E-01  0.273E-01
 -16.079  0.400E-01  0.444E-04  0.131E-01  0.269E-01
 -16.069  0.444E-01  0.510E-04  0.145E-01  0.299E-01
 -16.059  0.489E-01  0.581E-04  0.159E-01  0.329E-01
 -16.049  0.533E-01  0.657E-04  0.173E-01  0.359E-01
 -16.039  0.577E-01  0.739E-04  0.188E-01  0.389E-01
 -16.029  0.621E-01  0.825E-04  0.202E-01  0.418E-01
 -16.019  0.665E-01  0.917E-04  0.216E-01  0.448E-01
 -16.009  0.709E-01  0.101E-03  0.230E-01  0.478E-01
 -15.999  0.752E-01  0.112E-03  0.244E-01  0.507E-01
 -15.989  0.796E-01  0.122E-03  0.258E-01  0.537E-01
 -15.979  0.839E-01  0.134E-03  0.272E-01  0.566E-01
 -15.969  0.883E-01  0.145E-03  0.286E-01  0.595E-01
 -15.959  0.926E-01  0.158E-03  0.300E-01  0.625E-01
 -15.949  0.274E+00  0.635E-03  0.901E-01  0.183E+00
 -15.939  0.132E+00  0.363E-03  0.440E-01  0.882E-01
 -15.929  0.106E+00  0.269E-03  0.349E-01  0.708E-01
 -15.919  0.122E+00  0.336E-03  0.403E-01  0.810E-01
 -15.909  0.137E+00  0.406E-03  0.456E-01  0.912E-01
 -15.899  0.189E+00  0.683E-03  0.638E-01  0.124E+00
 -15.889  0.258E+00  0.104E-02  0.881E-01  0.169E+00
 -15.879  0.329E+00  0.137E-02  0.112E+00  0.215E+00
 -15.869  0.175E+00  0.600E-03  0.587E-01  0.116E+00
 -15.859  0.169E+00  0.562E-03  0.563E-01  0.112E+00
 -15.849  0.162E+00  0.525E-03  0.539E-01  0.108E+00
 -15.839  0.155E+00  0.490E-03  0.515E-01  0.104E+00
 -15.829  0.149E+00  0.455E-03  0.490E-01  0.992E-01
 -15.819  0.142E+00  0.422E-03  0.466E-01  0.948E-01
 -15.809  0.135E+00  0.391E-03  0.441E-01  0.903E-01
 -15.799  0.130E+00  0.368E-03  0.425E-01  0.874E-01
 -15.789  0.126E+00  0.349E-03  0.411E-01  0.850E-01
 -15.779  0.123E+00  0.330E-03  0.398E-01  0.826E-01
 -15.769  0.120E+00  0.316E-03  0.388E-01  0.809E-01
 -15.759  0.118E+00  0.306E-03  0.380E-01  0.795E-01
 -15.749  0.115E+00  0.295E-03  0.371E-01  0.780E-01
 -15.739  0.113E+00  0.286E-03  0.363E-01  0.766E-01
 -15.729  0.111E+00  0.276E-03  0.354E-01  0.750E-01
 -15.719  0.108E+00  0.266E-03  0.345E-01  0.732E-01
 -15.709  0.105E+00  0.257E-03  0.335E-01  0.714E-01
 -15.699  0.102E+00  0.249E-03  0.326E-01  0.696E-01
 -15.689  0.101E+00  0.241E-03  0.322E-01  0.690E-01
 -15.679  0.100E+00  0.234E-03  0.318E-01  0.684E-01
 -15.669  0.993E-01  0.227E-03  0.313E-01  0.677E-01
 -15.659  0.982E-01  0.221E-03  0.309E-01  0.671E-01
 -15.649  0.971E-01  0.214E-03  0.305E-01  0.664E-01
 -15.639  0.965E-01  0.209E-03  0.302E-01  0.661E-01
 -15.629  0.958E-01  0.205E-03  0.299E-01  0.657E-01
 -15.619  0.952E-01  0.200E-03  0.297E-01  0.653E-01
 -15.609  0.945E-01  0.195E-03  0.294E-01  0.650E-01
 -15.599  0.938E-01  0.191E-03  0.291E-01  0.646E-01
 -15.589  0.932E-01  0.187E-03  0.288E-01  0.642E-01
 -15.579  0.925E-01  0.183E-03  0.285E-01  0.638E-01
 -15.569  0.918E-01  0.178E-03  0.282E-01  0.633E-01
 -15.559  0.911E-01  0.174E-03  0.280E-01  0.629E-01
 -15.549  0.903E-01  0.171E-03  0.277E-01  0.625E-01
 -15.539  0.896E-01  0.167E-03  0.274E-01  0.621E-01
 -15.529  0.889E-01  0.163E-03  0.271E-01  0.616E-01
 -15.519  0.881E-01  0.160E-03  0.268E-01  0.611E-01
 -15.509  0.872E-01  0.156E-03  0.265E-01  0.606E-01
 -15.499  0.864E-01  0.152E-03  0.262E-01  0.601E-01
 -15.489  0.855E-01  0.149E-03  0.258E-01  0.595E-01
 -15.479  0.846E-01  0.146E-03  0.255E-01  0.589E-01
 -15.469  0.838E-01  0.143E-03  0.252E-01  0.584E-01
 -15.459  0.829E-01  0.140E-03  0.249E-01  0.579E-01
 -15.449  0.820E-01  0.137E-03  0.246E-01  0.573E-01
 -15.439  0.787E-01  0.132E-03  0.236E-01  0.550E-01
 -15.429  0.784E-01  0.130E-03  0.234E-01  0.549E-01
 -15.419  0.781E-01  0.127E-03  0.233E-01  0.547E-01
 -15.409  0.779E-01  0.125E-03  0.232E-01  0.546E-01
 -15.399  0.776E-01  0.123E-03  0.230E-01  0.544E-01
 -15.389  0.773E-01  0.120E-03  0.229E-01  0.543E-01
 -15.379  0.770E-01  0.118E-03  0.227E-01  0.541E-01
 -15.369  0.767E-01  0.116E-03  0.226E-01  0.540E-01
 -15.359  0.764E-01  0.114E-03  0.225E-01  0.538E-01
 -15.349  0.761E-01  0.112E-03  0.223E-01  0.536E-01
 -15.339  0.758E-01  0.110E-03  0.222E-01  0.535E-01
 -15.329  0.754E-01  0.108E-03  0.220E-01  0.533E-01
 -15.319  0.751E-01  0.106E-03  0.219E-01  0.531E-01
 -15.309  0.748E-01  0.104E-03  0.217E-01  0.529E-01
 -15.299  0.744E-01  0.102E-03  0.216E-01  0.527E-01
 -15.289  0.740E-01  0.100E-03  0.214E-01  0.525E-01
 -15.279  0.736E-01  0.982E-04  0.213E-01  0.522E-01
 -15.269  0.732E-01  0.964E-04  0.211E-01  0.520E-01
 -15.259  0.728E-01  0.946E-04  0.209E-01  0.518E-01
 -15.249  0.724E-01  0.928E-04  0.208E-01  0.515E-01
 -15.239  0.720E-01  0.911E-04  0.206E-01  0.513E-01
 -15.229  0.716E-01  0.894E-04  0.205E-01  0.510E-01
 -15.219  0.712E-01  0.878E-04  0.203E-01  0.508E-01
 -15.209  0.708E-01  0.862E-04  0.201E-01  0.505E-01
 -15.199  0.703E-01  0.847E-04  0.200E-01  0.503E-01
 -15.189  0.699E-01  0.832E-04  0.198E-01  0.500E-01
 -15.179  0.693E-01  0.816E-04  0.196E-01  0.496E-01
 -15.169  0.683E-01  0.796E-04  0.193E-01  0.490E-01
 -15.159  0.674E-01  0.778E-04  0.190E-01  0.483E-01
 -15.149  0.664E-01  0.760E-04  0.187E-01  0.476E-01
 -15.139  0.654E-01  0.742E-04  0.184E-01  0.469E-01
 -15.129  0.644E-01  0.725E-04  0.180E-01  0.462E-01
 -15.119  0.641E-01  0.713E-04  0.179E-01  0.461E-01
 -15.109  0.639E-01  0.700E-04  0.178E-01  0.460E-01
 -15.099  0.637E-01  0.688E-04  0.177E-01  0.459E-01
 -15.089  0.635E-01  0.676E-04  0.176E-01  0.458E-01
 -15.079  0.633E-01  0.664E-04  0.176E-01  0.457E-01
 -15.069  0.631E-01  0.652E-04  0.175E-01  0.455E-01
 -15.059  0.628E-01  0.641E-04  0.174E-01  0.454E-01
 -15.049  0.626E-01  0.629E-04  0.173E-01  0.453E-01
 -15.039  0.624E-01  0.618E-04  0.172E-01  0.452E-01
 -15.029  0.622E-01  0.607E-04  0.171E-01  0.451E-01
 -15.019  0.620E-01  0.596E-04  0.170E-01  0.449E-01
 -15.009  0.617E-01  0.586E-04  0.169E-01  0.448E-01
 -14.999  0.615E-01  0.576E-04  0.168E-01  0.447E-01
 -14.989  0.613E-01  0.565E-04  0.167E-01  0.445E-01
 -14.979  0.610E-01  0.556E-04  0.166E-01  0.444E-01
 -14.969  0.608E-01  0.546E-04  0.165E-01  0.443E-01
 -14.959  0.606E-01  0.536E-04  0.164E-01  0.441E-01
 -14.949  0.603E-01  0.527E-04  0.163E-01  0.440E-01
 -14.939  0.601E-01  0.518E-04  0.162E-01  0.439E-01
 -14.929  0.598E-01  0.508E-04  0.161E-01  0.437E-01
 -14.919  0.593E-01  0.498E-04  0.159E-01  0.434E-01
 -14.909  0.589E-01  0.488E-04  0.158E-01  0.431E-01
 -14.899  0.585E-01  0.477E-04  0.156E-01  0.428E-01
 -14.889  0.580E-01  0.468E-04  0.155E-01  0.425E-01
 -14.879  0.576E-01  0.458E-04  0.153E-01  0.422E-01
 -14.869  0.572E-01  0.449E-04  0.152E-01  0.420E-01
 -14.859  0.567E-01  0.440E-04  0.150E-01  0.417E-01
 -14.849  0.563E-01  0.431E-04  0.149E-01  0.414E-01
 -14.839  0.558E-01  0.422E-04  0.147E-01  0.411E-01
 -14.829  0.554E-01  0.414E-04  0.146E-01  0.408E-01
 -14.819  0.549E-01  0.406E-04  0.144E-01  0.405E-01
 -14.809  0.526E-01  0.388E-04  0.138E-01  0.388E-01
 -14.799  0.525E-01  0.381E-04  0.137E-01  0.387E-01
 -14.789  0.523E-01  0.374E-04  0.137E-01  0.386E-01
 -14.779  0.522E-01  0.368E-04  0.136E-01  0.385E-01
 -14.769  0.520E-01  0.361E-04  0.135E-01  0.384E-01
 -14.759  0.518E-01  0.354E-04  0.134E-01  0.384E-01
 -14.749  0.517E-01  0.348E-04  0.134E-01  0.383E-01
 -14.739  0.515E-01  0.342E-04  0.133E-01  0.382E-01
 -14.729  0.514E-01  0.335E-04  0.132E-01  0.381E-01
 -14.719  0.512E-01  0.329E-04  0.132E-01  0.380E-01
 -14.709  0.510E-01  0.323E-04  0.131E-01  0.379E-01
 -14.699  0.508E-01  0.317E-04  0.130E-01  0.378E-01
 -14.689  0.506E-01  0.311E-04  0.129E-01  0.377E-01
 -14.679  0.504E-01  0.304E-04  0.128E-01  0.375E-01
 -14.669  0.501E-01  0.298E-04  0.128E-01  0.374E-01
 -14.659  0.499E-01  0.292E-04  0.127E-01  0.372E-01
 -14.649  0.497E-01  0.286E-04  0.126E-01  0.371E-01
 -14.639  0.494E-01  0.281E-04  0.125E-01  0.369E-01
 -14.629  0.492E-01  0.275E-04  0.124E-01  0.368E-01
 -14.619  0.490E-01  0.269E-04  0.123E-01  0.366E-01
 -14.609  0.487E-01  0.264E-04  0.122E-01  0.365E-01
 -14.599  0.485E-01  0.259E-04  0.121E-01  0.363E-01
 -14.589  0.482E-01  0.253E-04  0.120E-01  0.362E-01
 -14.579  0.480E-01  0.248E-04  0.120E-01  0.360E-01
 -14.569  0.477E-01  0.243E-04  0.119E-01  0.358E-01
 -14.559  0.475E-01  0.239E-04  0.118E-01  0.357E-01
 -14.549  0.472E-01  0.234E-04  0.117E-01  0.355E-01
 -14.539  0.470E-01  0.229E-04  0.116E-01  0.354E-01
 -14.529  0.467E-01  0.225E-04  0.115E-01  0.352E-01
 -14.519  0.463E-01  0.219E-04  0.114E-01  0.349E-01
 -14.509  0.456E-01  0.213E-04  0.112E-01  0.344E-01
 -14.499  0.450E-01  0.207E-04  0.110E-01  0.339E-01
 -14.489  0.443E-01  0.201E-04  0.108E-01  0.335E-01
 -14.479  0.437E-01  0.196E-04  0.106E-01  0.330E-01
 -14.469  0.430E-01  0.190E-04  0.105E-01  0.325E-01
 -14.459  0.423E-01  0.185E-04  0.103E-01  0.320E-01
 -14.449  0.417E-01  0.180E-04  0.101E-01  0.316E-01
 -14.439  0.415E-01  0.176E-04  0.100E-01  0.315E-01
 -14.429  0.414E-01  0.172E-04  0.998E-02  0.314E-01
 -14.419  0.412E-01  0.168E-04  0.992E-02  0.313E-01
 -14.409  0.411E-01  0.165E-04  0.985E-02  0.312E-01
 -14.399  0.409E-01  0.161E-04  0.979E-02  0.311E-01
 -14.389  0.408E-01  0.158E-04  0.973E-02  0.310E-01
 -14.379  0.406E-01  0.155E-04  0.967E-02  0.309E-01
 -14.369  0.404E-01  0.151E-04  0.960E-02  0.308E-01
 -14.359  0.403E-01  0.148E-04  0.954E-02  0.307E-01
 -14.349  0.401E-01  0.145E-04  0.948E-02  0.306E-01
 -14.339  0.399E-01  0.142E-04  0.942E-02  0.305E-01
 -14.329  0.398E-01  0.139E-04  0.936E-02  0.304E-01
 -14.319  0.396E-01  0.136E-04  0.930E-02  0.303E-01
 -14.309  0.394E-01  0.133E-04  0.923E-02  0.302E-01
 -14.299  0.393E-01  0.130E-04  0.917E-02  0.301E-01
 -14.289  0.391E-01  0.127E-04  0.911E-02  0.300E-01
 -14.279  0.389E-01  0.124E-04  0.905E-02  0.299E-01
 -14.269  0.388E-01  0.121E-04  0.899E-02  0.298E-01
 -14.259  0.385E-01  0.118E-04  0.890E-02  0.296E-01
 -14.249  0.382E-01  0.115E-04  0.881E-02  0.294E-01
 -14.239  0.379E-01  0.112E-04  0.873E-02  0.292E-01
 -14.229  0.376E-01  0.109E-04  0.864E-02  0.290E-01
 -14.219  0.373E-01  0.106E-04  0.855E-02  0.288E-01
 -14.209  0.370E-01  0.104E-04  0.846E-02  0.286E-01
 -14.199  0.368E-01  0.101E-04  0.837E-02  0.284E-01
 -14.189  0.365E-01  0.982E-05  0.829E-02  0.282E-01
 -14.179  0.362E-01  0.956E-05  0.820E-02  0.280E-01
 -14.169  0.359E-01  0.931E-05  0.811E-02  0.278E-01
 -14.159  0.356E-01  0.906E-05  0.802E-02  0.275E-01
 -14.149  0.610E-01  0.682E-03  0.325E-01  0.278E-01
 -14.139  0.633E-01  0.734E-03  0.346E-01  0.279E-01
 -14.129  0.656E-01  0.786E-03  0.367E-01  0.281E-01
 -14.119  0.679E-01  0.836E-03  0.388E-01  0.283E-01
 -14.109  0.703E-01  0.886E-03  0.409E-01  0.285E-01
 -14.099  0.707E-01  0.935E-03  0.426E-01  0.272E-01
 -14.089  0.733E-01  0.982E-03  0.447E-01  0.276E-01
 -14.079  0.736E-01  0.976E-03  0.447E-01  0.279E-01
 -14.069  0.727E-01  0.942E-03  0.437E-01  0.280E-01
 -14.059  0.717E-01  0.908E-03  0.427E-01  0.282E-01
 -14.049  0.708E-01  0.875E-03  0.416E-01  0.283E-01
 -14.039  0.680E-01  0.803E-03  0.390E-01  0.282E-01
 -14.029  0.688E-01  0.811E-03  0.396E-01  0.285E-01
 -14.019  0.697E-01  0.818E-03  0.401E-01  0.287E-01
 -14.009  0.705E-01  0.824E-03  0.407E-01  0.290E-01
 -13.999  0.714E-01  0.831E-03  0.412E-01  0.293E-01
 -13.989  0.722E-01  0.837E-03  0.418E-01  0.296E-01
 -13.979  0.731E-01  0.843E-03  0.423E-01  0.299E-01
 -13.969  0.740E-01  0.849E-03  0.429E-01  0.303E-01
 -13.959  0.749E-01  0.854E-03  0.434E-01  0.306E-01
 -13.949  0.758E-01  0.859E-03  0.440E-01  0.310E-01
 -13.939  0.767E-01  0.864E-03  0.445E-01  0.313E-01
 -13.929  0.777E-01  0.869E-03  0.451E-01  0.317E-01
 -13.919  0.786E-01  0.873E-03  0.456E-01  0.321E-01
 -13.909  0.797E-01  0.880E-03  0.463E-01  0.325E-01
 -13.899  0.774E-01  0.830E-03  0.444E-01  0.322E-01
 -13.889  0.776E-01  0.822E-03  0.443E-01  0.324E-01
 -13.879  0.777E-01  0.814E-03  0.443E-01  0.326E-01
 -13.869  0.779E-01  0.806E-03  0.443E-01  0.328E-01
 -13.859  0.781E-01  0.799E-03  0.442E-01  0.330E-01
 -13.849  0.782E-01  0.791E-03  0.442E-01  0.332E-01
 -13.839  0.785E-01  0.785E-03  0.443E-01  0.335E-01
 -13.829  0.790E-01  0.782E-03  0.445E-01  0.337E-01
 -13.819  0.795E-01  0.779E-03  0.447E-01  0.340E-01
 -13.809  0.798E-01  0.777E-03  0.449E-01  0.342E-01
 -13.799  0.801E-01  0.774E-03  0.451E-01  0.342E-01
 -13.789  0.804E-01  0.770E-03  0.453E-01  0.343E-01
 -13.779  0.806E-01  0.767E-03  0.454E-01  0.344E-01
 -13.769  0.809E-01  0.764E-03  0.456E-01  0.345E-01
 -13.759  0.812E-01  0.760E-03  0.458E-01  0.346E-01
 -13.749  0.815E-01  0.757E-03  0.460E-01  0.348E-01
 -13.739  0.818E-01  0.753E-03  0.461E-01  0.349E-01
 -13.729  0.821E-01  0.749E-03  0.463E-01  0.350E-01
 -13.719  0.824E-01  0.745E-03  0.465E-01  0.351E-01
 -13.709  0.838E-01  0.756E-03  0.475E-01  0.356E-01
 -13.699  0.844E-01  0.755E-03  0.479E-01  0.358E-01
 -13.689  0.850E-01  0.753E-03  0.482E-01  0.360E-01
 -13.679  0.858E-01  0.751E-03  0.486E-01  0.365E-01
 -13.669  0.866E-01  0.749E-03  0.490E-01  0.369E-01
 -13.659  0.872E-01  0.745E-03  0.492E-01  0.373E-01
 -13.649  0.877E-01  0.738E-03  0.494E-01  0.376E-01
 -13.639  0.883E-01  0.733E-03  0.496E-01  0.380E-01
 -13.629  0.889E-01  0.728E-03  0.498E-01  0.383E-01
 -13.619  0.896E-01  0.723E-03  0.501E-01  0.387E-01
 -13.609  0.902E-01  0.718E-03  0.504E-01  0.391E-01
 -13.599  0.909E-01  0.713E-03  0.507E-01  0.395E-01
 -13.589  0.916E-01  0.708E-03  0.509E-01  0.399E-01
 -13.579  0.922E-01  0.702E-03  0.512E-01  0.403E-01
 -13.569  0.929E-01  0.696E-03  0.515E-01  0.408E-01
 -13.559  0.935E-01  0.690E-03  0.517E-01  0.412E-01
 -13.549  0.942E-01  0.683E-03  0.519E-01  0.416E-01
 -13.539  0.948E-01  0.676E-03  0.522E-01  0.420E-01
 -13.529  0.956E-01  0.670E-03  0.525E-01  0.424E-01
 -13.519  0.967E-01  0.668E-03  0.530E-01  0.430E-01
 -13.509  0.979E-01  0.665E-03  0.536E-01  0.436E-01
 -13.499  0.991E-01  0.662E-03  0.542E-01  0.442E-01
 -13.489  0.100E+00  0.659E-03  0.548E-01  0.448E-01
 -13.479  0.101E+00  0.656E-03  0.553E-01  0.454E-01
 -13.469  0.103E+00  0.652E-03  0.559E-01  0.461E-01
 -13.459  0.104E+00  0.648E-03  0.565E-01  0.467E-01
 -13.449  0.105E+00  0.641E-03  0.569E-01  0.473E-01
 -13.439  0.106E+00  0.634E-03  0.573E-01  0.478E-01
 -13.429  0.107E+00  0.626E-03  0.576E-01  0.483E-01
 -13.419  0.108E+00  0.618E-03  0.580E-01  0.489E-01
 -13.409  0.108E+00  0.610E-03  0.583E-01  0.495E-01
 -13.399  0.109E+00  0.602E-03  0.587E-01  0.500E-01
 -13.389  0.120E+00  0.651E-03  0.649E-01  0.547E-01
 -13.379  0.126E+00  0.669E-03  0.683E-01  0.574E-01
 -13.369  0.133E+00  0.685E-03  0.717E-01  0.603E-01
 -13.359  0.138E+00  0.699E-03  0.749E-01  0.621E-01
 -13.349  0.142E+00  0.702E-03  0.771E-01  0.642E-01
 -13.339  0.146E+00  0.699E-03  0.790E-01  0.660E-01
 -13.329  0.149E+00  0.696E-03  0.808E-01  0.678E-01
 -13.319  0.153E+00  0.691E-03  0.827E-01  0.697E-01
 -13.309  0.157E+00  0.686E-03  0.845E-01  0.715E-01
 -13.299  0.164E+00  0.699E-03  0.885E-01  0.749E-01
 -13.289  0.168E+00  0.693E-03  0.907E-01  0.770E-01
 -13.279  0.172E+00  0.683E-03  0.924E-01  0.788E-01
 -13.269  0.175E+00  0.672E-03  0.941E-01  0.806E-01
 -13.259  0.179E+00  0.660E-03  0.959E-01  0.825E-01
 -13.249  0.180E+00  0.638E-03  0.960E-01  0.830E-01
 -13.239  0.157E+00  0.553E-03  0.834E-01  0.730E-01
 -13.229  0.147E+00  0.506E-03  0.776E-01  0.685E-01
 -13.219  0.141E+00  0.474E-03  0.743E-01  0.660E-01
 -13.209  0.135E+00  0.444E-03  0.710E-01  0.635E-01
 -13.199  0.129E+00  0.414E-03  0.677E-01  0.610E-01
 -13.189  0.125E+00  0.390E-03  0.654E-01  0.592E-01
 -13.179  0.122E+00  0.369E-03  0.636E-01  0.578E-01
 -13.169  0.119E+00  0.349E-03  0.618E-01  0.564E-01
 -13.159  0.115E+00  0.329E-03  0.600E-01  0.549E-01
 -13.149  0.112E+00  0.310E-03  0.582E-01  0.535E-01
 -13.139  0.109E+00  0.291E-03  0.563E-01  0.519E-01
 -13.129  0.105E+00  0.273E-03  0.546E-01  0.504E-01
 -13.119  0.104E+00  0.262E-03  0.539E-01  0.498E-01
 -13.109  0.103E+00  0.254E-03  0.537E-01  0.495E-01
 -13.099  0.103E+00  0.245E-03  0.535E-01  0.492E-01
 -13.089  0.102E+00  0.236E-03  0.533E-01  0.489E-01
 -13.079  0.102E+00  0.227E-03  0.530E-01  0.486E-01
 -13.069  0.101E+00  0.217E-03  0.527E-01  0.483E-01
 -13.059  0.101E+00  0.208E-03  0.524E-01  0.479E-01
 -13.049  0.998E-01  0.198E-03  0.521E-01  0.475E-01
 -13.039  0.976E-01  0.185E-03  0.510E-01  0.464E-01
 -13.029  0.947E-01  0.172E-03  0.496E-01  0.449E-01
 -13.019  0.917E-01  0.160E-03  0.481E-01  0.435E-01
 -13.009  0.887E-01  0.148E-03  0.466E-01  0.419E-01
 -12.999  0.857E-01  0.136E-03  0.451E-01  0.404E-01
 -12.989  0.830E-01  0.125E-03  0.436E-01  0.393E-01
 -12.979  0.804E-01  0.114E-03  0.421E-01  0.382E-01
 -12.969  0.776E-01  0.103E-03  0.406E-01  0.370E-01
 -12.959  0.749E-01  0.931E-04  0.390E-01  0.358E-01
 -12.949  0.100E+00  0.118E-03  0.522E-01  0.480E-01
 -12.939  0.971E-01  0.107E-03  0.504E-01  0.466E-01
 -12.929  0.938E-01  0.969E-04  0.486E-01  0.451E-01
 -12.919  0.904E-01  0.870E-04  0.467E-01  0.436E-01
 -12.909  0.870E-01  0.776E-04  0.449E-01  0.421E-01
 -12.899  0.835E-01  0.686E-04  0.430E-01  0.405E-01
 -12.889  0.800E-01  0.600E-04  0.411E-01  0.389E-01
 -12.879  0.764E-01  0.517E-04  0.391E-01  0.372E-01
 -12.869  0.728E-01  0.439E-04  0.372E-01  0.355E-01
 -12.859  0.691E-01  0.365E-04  0.352E-01  0.338E-01
 -12.849  0.101E+00  0.467E-04  0.515E-01  0.496E-01
 -12.839  0.962E-01  0.393E-04  0.489E-01  0.473E-01
 -12.829  0.897E-01  0.318E-04  0.455E-01  0.441E-01
 -12.819  0.830E-01  0.248E-04  0.420E-01  0.409E-01
 -12.809  0.762E-01  0.184E-04  0.386E-01  0.377E-01
 -12.799  0.693E-01  0.127E-04  0.350E-01  0.343E-01
 -12.789  0.623E-01  0.749E-05  0.314E-01  0.309E-01
 -12.779  0.886E-01  0.658E-05  0.446E-01  0.440E-01
 -12.769  0.346E-01  0.101E-05  0.174E-01  0.172E-01
 -12.759  0.120E-03  0.211E-09  0.597E-04  0.599E-04
 -12.749  0.452E-03  0.192E-08  0.221E-03  0.231E-03
 -12.739  0.789E-03  0.528E-08  0.379E-03  0.411E-03
 -12.729  0.113E-02  0.103E-07  0.532E-03  0.599E-03
 -12.719  0.148E-02  0.170E-07  0.680E-03  0.795E-03
 -12.709  0.183E-02  0.253E-07  0.825E-03  0.100E-02
 -12.699  0.218E-02  0.352E-07  0.965E-03  0.121E-02
 -12.689  0.254E-02  0.468E-07  0.110E-02  0.144E-02
 -12.679  0.290E-02  0.601E-07  0.123E-02  0.167E-02
 -12.669  0.327E-02  0.750E-07  0.136E-02  0.191E-02
 -12.659  0.364E-02  0.916E-07  0.148E-02  0.215E-02
 -12.649  0.401E-02  0.110E-06  0.160E-02  0.241E-02
 -12.639  0.439E-02  0.130E-06  0.172E-02  0.267E-02
 -12.629  0.477E-02  0.151E-06  0.183E-02  0.295E-02
 -12.619  0.516E-02  0.174E-06  0.193E-02  0.323E-02
 -12.609  0.555E-02  0.199E-06  0.203E-02  0.352E-02
 -12.599  0.595E-02  0.226E-06  0.213E-02  0.382E-02
 -12.589  0.635E-02  0.254E-06  0.222E-02  0.413E-02
 -12.579  0.675E-02  0.284E-06  0.231E-02  0.444E-02
 -12.569  0.716E-02  0.315E-06  0.240E-02  0.477E-02
 -12.559  0.757E-02  0.348E-06  0.248E-02  0.510E-02
 -12.549  0.799E-02  0.383E-06  0.255E-02  0.544E-02
 -12.539  0.841E-02  0.419E-06  0.262E-02  0.579E-02
 -12.529  0.884E-02  0.457E-06  0.269E-02  0.615E-02
 -12.519  0.927E-02  0.497E-06  0.275E-02  0.651E-02
 -12.509  0.970E-02  0.538E-06  0.281E-02  0.689E-02
 -12.499  0.101E-01  0.581E-06  0.287E-02  0.727E-02
 -12.489  0.106E-01  0.626E-06  0.292E-02  0.767E-02
 -12.479  0.110E-01  0.672E-06  0.296E-02  0.807E-02
 -12.469  0.115E-01  0.720E-06  0.300E-02  0.848E-02
 -12.459  0.119E-01  0.770E-06  0.304E-02  0.889E-02
 -12.449  0.124E-01  0.821E-06  0.307E-02  0.932E-02
 -12.439  0.129E-01  0.874E-06  0.310E-02  0.975E-02
 -12.429  0.133E-01  0.928E-06  0.312E-02  0.102E-01
 -12.419  0.158E-01  0.114E-05  0.364E-02  0.122E-01
 -12.409  0.162E-01  0.122E-05  0.369E-02  0.125E-01
 -12.399  0.165E-01  0.132E-05  0.374E-02  0.128E-01
 -12.389  0.168E-01  0.143E-05  0.379E-02  0.130E-01
 -12.379  0.172E-01  0.155E-05  0.383E-02  0.133E-01
 -12.369  0.175E-01  0.168E-05  0.388E-02  0.136E-01
 -12.359  0.178E-01  0.183E-05  0.392E-02  0.139E-01
 -12.349  0.181E-01  0.199E-05  0.396E-02  0.142E-01
 -12.339  0.185E-01  0.216E-05  0.401E-02  0.145E-01
 -12.329  0.188E-01  0.234E-05  0.405E-02  0.147E-01
 -12.319  0.191E-01  0.254E-05  0.409E-02  0.150E-01
 -12.309  0.194E-01  0.274E-05  0.412E-02  0.153E-01
 -12.299  0.198E-01  0.296E-05  0.416E-02  0.156E-01
 -12.289  0.201E-01  0.320E-05  0.420E-02  0.159E-01
 -12.279  0.204E-01  0.344E-05  0.423E-02  0.162E-01
 -12.269  0.207E-01  0.370E-05  0.427E-02  0.165E-01
 -12.259  0.211E-01  0.397E-05  0.430E-02  0.168E-01
 -12.249  0.214E-01  0.425E-05  0.434E-02  0.170E-01
 -12.239  0.217E-01  0.455E-05  0.437E-02  0.173E-01
 -12.229  0.220E-01  0.485E-05  0.440E-02  0.176E-01
 -12.219  0.224E-01  0.517E-05  0.443E-02  0.179E-01
 -12.209  0.227E-01  0.550E-05  0.445E-02  0.182E-01
 -12.199  0.230E-01  0.585E-05  0.448E-02  0.185E-01
 -12.189  0.355E-01  0.131E-03  0.100E-01  0.254E-01
 -12.179  0.535E-01  0.310E-03  0.180E-01  0.352E-01
 -12.169  0.669E-01  0.440E-03  0.238E-01  0.426E-01
 -12.159  0.733E-01  0.498E-03  0.265E-01  0.463E-01
 -12.149  0.798E-01  0.555E-03  0.292E-01  0.501E-01
 -12.139  0.862E-01  0.611E-03  0.318E-01  0.538E-01
 -12.129  0.927E-01  0.666E-03  0.344E-01  0.576E-01
 -12.119  0.100E+00  0.720E-03  0.372E-01  0.623E-01
 -12.109  0.108E+00  0.774E-03  0.400E-01  0.670E-01
 -12.099  0.114E+00  0.812E-03  0.421E-01  0.709E-01
 -12.089  0.119E+00  0.845E-03  0.439E-01  0.745E-01
 -12.079  0.125E+00  0.877E-03  0.457E-01  0.781E-01
 -12.069  0.130E+00  0.908E-03  0.475E-01  0.818E-01
 -12.059  0.136E+00  0.939E-03  0.493E-01  0.854E-01
 -12.049  0.141E+00  0.970E-03  0.511E-01  0.891E-01
 -12.039  0.147E+00  0.100E-02  0.528E-01  0.927E-01
 -12.029  0.152E+00  0.103E-02  0.545E-01  0.964E-01
 -12.019  0.157E+00  0.106E-02  0.562E-01  0.100E+00
 -12.009  0.163E+00  0.109E-02  0.579E-01  0.104E+00
 -11.999  0.168E+00  0.111E-02  0.595E-01  0.108E+00
 -11.989  0.159E+00  0.102E-02  0.549E-01  0.103E+00
 -11.979  0.159E+00  0.101E-02  0.544E-01  0.104E+00
 -11.969  0.160E+00  0.992E-03  0.539E-01  0.105E+00
 -11.959  0.160E+00  0.978E-03  0.533E-01  0.106E+00
 -11.949  0.163E+00  0.982E-03  0.536E-01  0.108E+00
 -11.939  0.165E+00  0.987E-03  0.540E-01  0.110E+00
 -11.929  0.168E+00  0.992E-03  0.543E-01  0.113E+00
 -11.919  0.171E+00  0.996E-03  0.547E-01  0.115E+00
 -11.909  0.173E+00  0.100E-02  0.550E-01  0.117E+00
 -11.899  0.177E+00  0.101E-02  0.557E-01  0.120E+00
 -11.889  0.194E+00  0.110E-02  0.600E-01  0.133E+00
 -11.879  0.212E+00  0.116E-02  0.638E-01  0.147E+00
 -11.869  0.224E+00  0.119E-02  0.657E-01  0.157E+00
 -11.859  0.225E+00  0.117E-02  0.651E-01  0.158E+00
 -11.849  0.226E+00  0.115E-02  0.646E-01  0.160E+00
 -11.839  0.226E+00  0.112E-02  0.640E-01  0.161E+00
 -11.829  0.223E+00  0.109E-02  0.627E-01  0.159E+00
 -11.819  0.215E+00  0.106E-02  0.608E-01  0.154E+00
 -11.809  0.208E+00  0.103E-02  0.589E-01  0.148E+00
 -11.799  0.201E+00  0.992E-03  0.569E-01  0.143E+00
 -11.789  0.194E+00  0.957E-03  0.550E-01  0.138E+00
 -11.779  0.183E+00  0.904E-03  0.522E-01  0.130E+00
 -11.769  0.173E+00  0.851E-03  0.493E-01  0.123E+00
 -11.759  0.162E+00  0.801E-03  0.465E-01  0.115E+00
 -11.749  0.152E+00  0.752E-03  0.438E-01  0.107E+00
 -11.739  0.142E+00  0.706E-03  0.411E-01  0.997E-01
 -11.729  0.131E+00  0.662E-03  0.386E-01  0.919E-01
 -11.719  0.130E+00  0.654E-03  0.382E-01  0.913E-01
 -11.709  0.129E+00  0.647E-03  0.378E-01  0.906E-01
 -11.699  0.128E+00  0.639E-03  0.374E-01  0.899E-01
 -11.689  0.127E+00  0.632E-03  0.370E-01  0.893E-01
 -11.679  0.126E+00  0.624E-03  0.367E-01  0.886E-01
 -11.669  0.125E+00  0.617E-03  0.363E-01  0.880E-01
 -11.659  0.124E+00  0.610E-03  0.359E-01  0.873E-01
 -11.649  0.123E+00  0.602E-03  0.356E-01  0.866E-01
 -11.639  0.122E+00  0.595E-03  0.352E-01  0.860E-01
 -11.629  0.121E+00  0.588E-03  0.348E-01  0.853E-01
 -11.619  0.120E+00  0.581E-03  0.345E-01  0.846E-01
 -11.609  0.119E+00  0.573E-03  0.342E-01  0.839E-01
 -11.599  0.118E+00  0.566E-03  0.338E-01  0.833E-01
 -11.589  0.117E+00  0.559E-03  0.335E-01  0.826E-01
 -11.579  0.114E+00  0.544E-03  0.327E-01  0.811E-01
 -11.569  0.112E+00  0.528E-03  0.318E-01  0.795E-01
 -11.559  0.110E+00  0.517E-03  0.312E-01  0.784E-01
 -11.549  0.109E+00  0.508E-03  0.307E-01  0.776E-01
 -11.539  0.108E+00  0.499E-03  0.303E-01  0.774E-01
 -11.529  0.108E+00  0.490E-03  0.299E-01  0.772E-01
 -11.519  0.107E+00  0.483E-03  0.296E-01  0.770E-01
 -11.509  0.107E+00  0.477E-03  0.293E-01  0.768E-01
 -11.499  0.106E+00  0.472E-03  0.290E-01  0.766E-01
 -11.489  0.106E+00  0.467E-03  0.287E-01  0.763E-01
 -11.479  0.105E+00  0.462E-03  0.285E-01  0.761E-01
 -11.469  0.104E+00  0.459E-03  0.283E-01  0.758E-01
 -11.459  0.104E+00  0.456E-03  0.281E-01  0.754E-01
 -11.449  0.104E+00  0.455E-03  0.280E-01  0.753E-01
 -11.439  0.104E+00  0.456E-03  0.279E-01  0.753E-01
 -11.429  0.104E+00  0.457E-03  0.279E-01  0.753E-01
 -11.419  0.104E+00  0.458E-03  0.279E-01  0.753E-01
 -11.409  0.855E-01  0.404E-03  0.243E-01  0.608E-01
 -11.399  0.848E-01  0.398E-03  0.239E-01  0.604E-01
 -11.389  0.840E-01  0.392E-03  0.236E-01  0.601E-01
 -11.379  0.833E-01  0.387E-03  0.232E-01  0.597E-01
 -11.369  0.825E-01  0.381E-03  0.228E-01  0.593E-01
 -11.359  0.817E-01  0.375E-03  0.225E-01  0.589E-01
 -11.349  0.810E-01  0.370E-03  0.221E-01  0.585E-01
 -11.339  0.802E-01  0.364E-03  0.218E-01  0.581E-01
 -11.329  0.795E-01  0.359E-03  0.214E-01  0.577E-01
 -11.319  0.787E-01  0.353E-03  0.211E-01  0.573E-01
 -11.309  0.780E-01  0.348E-03  0.208E-01  0.568E-01
 -11.299  0.772E-01  0.343E-03  0.205E-01  0.564E-01
 -11.289  0.765E-01  0.338E-03  0.202E-01  0.560E-01
 -11.279  0.757E-01  0.333E-03  0.198E-01  0.556E-01
 -11.269  0.750E-01  0.328E-03  0.195E-01  0.551E-01
 -11.259  0.742E-01  0.324E-03  0.193E-01  0.547E-01
 -11.249  0.735E-01  0.319E-03  0.190E-01  0.542E-01
 -11.239  0.728E-01  0.314E-03  0.187E-01  0.538E-01
 -11.229  0.720E-01  0.310E-03  0.184E-01  0.533E-01
 -11.219  0.713E-01  0.305E-03  0.181E-01  0.528E-01
 -11.209  0.705E-01  0.301E-03  0.179E-01  0.524E-01
 -11.199  0.698E-01  0.297E-03  0.176E-01  0.519E-01
 -11.189  0.691E-01  0.293E-03  0.174E-01  0.514E-01
 -11.179  0.683E-01  0.289E-03  0.171E-01  0.509E-01
 -11.169  0.676E-01  0.285E-03  0.169E-01  0.504E-01
 -11.159  0.668E-01  0.281E-03  0.166E-01  0.499E-01
 -11.149  0.661E-01  0.277E-03  0.164E-01  0.494E-01
 -11.139  0.654E-01  0.273E-03  0.162E-01  0.489E-01
 -11.129  0.646E-01  0.270E-03  0.160E-01  0.484E-01
 -11.119  0.639E-01  0.266E-03  0.158E-01  0.479E-01
 -11.109  0.632E-01  0.263E-03  0.156E-01  0.473E-01
 -11.099  0.624E-01  0.259E-03  0.154E-01  0.468E-01
 -11.089  0.639E-01  0.259E-03  0.154E-01  0.483E-01
 -11.079  0.703E-01  0.269E-03  0.159E-01  0.541E-01
 -11.069  0.769E-01  0.286E-03  0.169E-01  0.597E-01
 -11.059  0.840E-01  0.313E-03  0.184E-01  0.652E-01
 -11.049  0.917E-01  0.349E-03  0.205E-01  0.709E-01
 -11.039  0.995E-01  0.391E-03  0.229E-01  0.762E-01
 -11.029  0.107E+00  0.440E-03  0.257E-01  0.812E-01
 -11.019  0.548E-01  0.243E-03  0.141E-01  0.404E-01
 -11.009  0.542E-01  0.239E-03  0.138E-01  0.402E-01
 -10.999  0.537E-01  0.235E-03  0.135E-01  0.399E-01
 -10.989  0.531E-01  0.231E-03  0.132E-01  0.397E-01
 -10.979  0.525E-01  0.227E-03  0.129E-01  0.394E-01
 -10.969  0.519E-01  0.223E-03  0.126E-01  0.391E-01
 -10.959  0.514E-01  0.219E-03  0.123E-01  0.389E-01
 -10.949  0.508E-01  0.215E-03  0.120E-01  0.386E-01
 -10.939  0.502E-01  0.211E-03  0.117E-01  0.383E-01
 -10.929  0.496E-01  0.208E-03  0.114E-01  0.380E-01
 -10.919  0.491E-01  0.204E-03  0.111E-01  0.378E-01
 -10.909  0.485E-01  0.200E-03  0.108E-01  0.375E-01
 -10.899  0.479E-01  0.197E-03  0.106E-01  0.372E-01
 -10.889  0.474E-01  0.193E-03  0.103E-01  0.369E-01
 -10.879  0.626E-01  0.351E-03  0.190E-01  0.433E-01
 -10.869  0.858E-01  0.586E-03  0.319E-01  0.533E-01
 -10.859  0.109E+00  0.816E-03  0.443E-01  0.637E-01
 -10.849  0.132E+00  0.104E-02  0.562E-01  0.744E-01
 -10.839  0.154E+00  0.126E-02  0.676E-01  0.853E-01
 -10.829  0.177E+00  0.147E-02  0.784E-01  0.966E-01
 -10.819  0.188E+00  0.158E-02  0.837E-01  0.103E+00
 -10.809  0.212E+00  0.180E-02  0.948E-01  0.115E+00
 -10.799  0.235E+00  0.202E-02  0.105E+00  0.128E+00
 -10.789  0.259E+00  0.223E-02  0.116E+00  0.141E+00
 -10.779  0.282E+00  0.244E-02  0.126E+00  0.154E+00
 -10.769  0.305E+00  0.264E-02  0.135E+00  0.167E+00
 -10.759  0.286E+00  0.242E-02  0.125E+00  0.159E+00
 -10.749  0.270E+00  0.221E-02  0.116E+00  0.151E+00
 -10.739  0.263E+00  0.212E-02  0.112E+00  0.149E+00
 -10.729  0.770E+00  0.618E-02  0.360E+00  0.403E+00
 -10.719  0.237E+00  0.184E-02  0.984E-01  0.137E+00
 -10.709  0.223E+00  0.170E-02  0.911E-01  0.130E+00
 -10.699  0.209E+00  0.157E-02  0.838E-01  0.123E+00
 -10.689  0.191E+00  0.141E-02  0.752E-01  0.115E+00
 -10.679  0.171E+00  0.124E-02  0.657E-01  0.104E+00
 -10.669  0.152E+00  0.108E-02  0.566E-01  0.939E-01
 -10.659  0.148E+00  0.104E-02  0.549E-01  0.925E-01
 -10.649  0.157E+00  0.111E-02  0.572E-01  0.986E-01
 -10.639  0.155E+00  0.105E-02  0.548E-01  0.994E-01
 -10.629  0.155E+00  0.101E-02  0.530E-01  0.101E+00
 -10.619  0.155E+00  0.978E-03  0.516E-01  0.102E+00
 -10.609  0.155E+00  0.953E-03  0.506E-01  0.104E+00
 -10.599  0.155E+00  0.937E-03  0.501E-01  0.104E+00
 -10.589  0.156E+00  0.928E-03  0.501E-01  0.105E+00
 -10.579  0.157E+00  0.928E-03  0.505E-01  0.105E+00
 -10.569  0.120E+00  0.788E-03  0.444E-01  0.748E-01
 -10.559  0.128E+00  0.832E-03  0.458E-01  0.816E-01
 -10.549  0.136E+00  0.877E-03  0.471E-01  0.884E-01
 -10.539  0.145E+00  0.922E-03  0.485E-01  0.953E-01
 -10.529  0.153E+00  0.967E-03  0.500E-01  0.102E+00
 -10.519  0.162E+00  0.101E-02  0.514E-01  0.109E+00
 -10.509  0.140E+00  0.888E-03  0.469E-01  0.926E-01
 -10.499  0.141E+00  0.891E-03  0.469E-01  0.936E-01
 -10.489  0.142E+00  0.893E-03  0.468E-01  0.947E-01
 -10.479  0.143E+00  0.896E-03  0.467E-01  0.957E-01
 -10.469  0.144E+00  0.898E-03  0.467E-01  0.968E-01
 -10.459  0.145E+00  0.900E-03  0.466E-01  0.978E-01
 -10.449  0.146E+00  0.903E-03  0.465E-01  0.989E-01
 -10.439  0.147E+00  0.905E-03  0.465E-01  0.999E-01
 -10.429  0.148E+00  0.907E-03  0.464E-01  0.101E+00
 -10.419  0.149E+00  0.910E-03  0.463E-01  0.102E+00
 -10.409  0.150E+00  0.912E-03  0.463E-01  0.103E+00
 -10.399  0.151E+00  0.914E-03  0.462E-01  0.104E+00
 -10.389  0.223E+00  0.145E-02  0.756E-01  0.146E+00
 -10.379  0.208E+00  0.136E-02  0.706E-01  0.137E+00
 -10.369  0.192E+00  0.126E-02  0.648E-01  0.126E+00
 -10.359  0.176E+00  0.114E-02  0.585E-01  0.116E+00
 -10.349  0.160E+00  0.102E-02  0.518E-01  0.107E+00
 -10.339  0.144E+00  0.890E-03  0.447E-01  0.981E-01
 -10.329  0.139E+00  0.847E-03  0.421E-01  0.957E-01
 -10.319  0.138E+00  0.843E-03  0.416E-01  0.954E-01
 -10.309  0.137E+00  0.840E-03  0.411E-01  0.951E-01
 -10.299  0.136E+00  0.837E-03  0.407E-01  0.948E-01
 -10.289  0.137E+00  0.840E-03  0.406E-01  0.951E-01
 -10.279  0.137E+00  0.845E-03  0.406E-01  0.956E-01
 -10.269  0.138E+00  0.850E-03  0.406E-01  0.962E-01
 -10.259  0.138E+00  0.856E-03  0.406E-01  0.967E-01
 -10.249  0.139E+00  0.861E-03  0.406E-01  0.973E-01
 -10.239  0.139E+00  0.866E-03  0.406E-01  0.978E-01
 -10.229  0.140E+00  0.871E-03  0.406E-01  0.984E-01
 -10.219  0.140E+00  0.876E-03  0.406E-01  0.989E-01
 -10.209  0.141E+00  0.881E-03  0.406E-01  0.995E-01
 -10.199  0.142E+00  0.887E-03  0.406E-01  0.100E+00
 -10.189  0.142E+00  0.892E-03  0.406E-01  0.101E+00
 -10.179  0.143E+00  0.897E-03  0.406E-01  0.101E+00
 -10.169  0.133E+00  0.866E-03  0.404E-01  0.922E-01
 -10.159  0.135E+00  0.873E-03  0.404E-01  0.932E-01
 -10.149  0.136E+00  0.880E-03  0.404E-01  0.943E-01
 -10.139  0.132E+00  0.865E-03  0.395E-01  0.917E-01
 -10.129  0.132E+00  0.867E-03  0.394E-01  0.921E-01
 -10.119  0.132E+00  0.870E-03  0.392E-01  0.924E-01
 -10.109  0.133E+00  0.872E-03  0.390E-01  0.928E-01
 -10.099  0.133E+00  0.875E-03  0.388E-01  0.932E-01
 -10.089  0.133E+00  0.877E-03  0.386E-01  0.936E-01
 -10.079  0.134E+00  0.881E-03  0.384E-01  0.943E-01
 -10.069  0.134E+00  0.888E-03  0.383E-01  0.953E-01
 -10.059  0.135E+00  0.894E-03  0.382E-01  0.963E-01
 -10.049  0.136E+00  0.900E-03  0.381E-01  0.973E-01
 -10.039  0.137E+00  0.906E-03  0.380E-01  0.983E-01
 -10.029  0.138E+00  0.913E-03  0.379E-01  0.993E-01
 -10.019  0.139E+00  0.919E-03  0.377E-01  0.100E+00
 -10.009  0.140E+00  0.925E-03  0.376E-01  0.101E+00
  -9.999  0.141E+00  0.931E-03  0.375E-01  0.102E+00
  -9.989  0.142E+00  0.937E-03  0.373E-01  0.103E+00
  -9.979  0.143E+00  0.944E-03  0.371E-01  0.105E+00
  -9.969  0.144E+00  0.950E-03  0.370E-01  0.106E+00
  -9.959  0.144E+00  0.956E-03  0.368E-01  0.107E+00
  -9.949  0.182E+00  0.123E-02  0.423E-01  0.139E+00
  -9.939  0.181E+00  0.122E-02  0.414E-01  0.138E+00
  -9.929  0.179E+00  0.121E-02  0.405E-01  0.138E+00
  -9.919  0.178E+00  0.120E-02  0.398E-01  0.137E+00
  -9.909  0.177E+00  0.120E-02  0.391E-01  0.137E+00
  -9.899  0.176E+00  0.120E-02  0.385E-01  0.137E+00
  -9.889  0.175E+00  0.119E-02  0.379E-01  0.136E+00
  -9.879  0.174E+00  0.119E-02  0.373E-01  0.136E+00
  -9.869  0.173E+00  0.119E-02  0.367E-01  0.136E+00
  -9.859  0.172E+00  0.119E-02  0.361E-01  0.135E+00
  -9.849  0.172E+00  0.118E-02  0.355E-01  0.135E+00
  -9.839  0.170E+00  0.118E-02  0.350E-01  0.134E+00
  -9.829  0.165E+00  0.116E-02  0.336E-01  0.130E+00
  -9.819  0.164E+00  0.115E-02  0.330E-01  0.130E+00
  -9.809  0.162E+00  0.115E-02  0.324E-01  0.129E+00
  -9.799  0.161E+00  0.114E-02  0.318E-01  0.128E+00
  -9.789  0.159E+00  0.114E-02  0.312E-01  0.127E+00
  -9.779  0.158E+00  0.113E-02  0.306E-01  0.126E+00
  -9.769  0.156E+00  0.113E-02  0.301E-01  0.125E+00
  -9.759  0.155E+00  0.112E-02  0.296E-01  0.124E+00
  -9.749  0.154E+00  0.112E-02  0.291E-01  0.124E+00
  -9.739  0.153E+00  0.112E-02  0.287E-01  0.123E+00
  -9.729  0.152E+00  0.111E-02  0.283E-01  0.122E+00
  -9.719  0.150E+00  0.111E-02  0.279E-01  0.121E+00
  -9.709  0.149E+00  0.111E-02  0.275E-01  0.121E+00
  -9.699  0.148E+00  0.110E-02  0.271E-01  0.120E+00
  -9.689  0.147E+00  0.110E-02  0.268E-01  0.120E+00
  -9.679  0.148E+00  0.111E-02  0.265E-01  0.120E+00
  -9.669  0.148E+00  0.112E-02  0.262E-01  0.121E+00
  -9.659  0.149E+00  0.113E-02  0.259E-01  0.122E+00
  -9.649  0.149E+00  0.114E-02  0.256E-01  0.122E+00
  -9.639  0.150E+00  0.115E-02  0.254E-01  0.123E+00
  -9.629  0.150E+00  0.116E-02  0.251E-01  0.124E+00
  -9.619  0.150E+00  0.117E-02  0.249E-01  0.124E+00
  -9.609  0.151E+00  0.119E-02  0.247E-01  0.125E+00
  -9.599  0.151E+00  0.120E-02  0.245E-01  0.126E+00
  -9.589  0.152E+00  0.121E-02  0.244E-01  0.126E+00
  -9.579  0.152E+00  0.122E-02  0.242E-01  0.127E+00
  -9.569  0.153E+00  0.123E-02  0.241E-01  0.127E+00
  -9.559  0.153E+00  0.125E-02  0.239E-01  0.128E+00
  -9.549  0.154E+00  0.126E-02  0.238E-01  0.129E+00
  -9.539  0.154E+00  0.127E-02  0.237E-01  0.129E+00
  -9.529  0.155E+00  0.129E-02  0.237E-01  0.130E+00
  -9.519  0.143E+00  0.117E-02  0.226E-01  0.119E+00
  -9.509  0.144E+00  0.119E-02  0.224E-01  0.120E+00
  -9.499  0.145E+00  0.121E-02  0.223E-01  0.121E+00
  -9.489  0.146E+00  0.122E-02  0.222E-01  0.123E+00
  -9.479  0.146E+00  0.124E-02  0.220E-01  0.123E+00
  -9.469  0.146E+00  0.125E-02  0.216E-01  0.123E+00
  -9.459  0.147E+00  0.127E-02  0.215E-01  0.124E+00
  -9.449  0.148E+00  0.129E-02  0.215E-01  0.125E+00
  -9.439  0.149E+00  0.132E-02  0.214E-01  0.126E+00
  -9.429  0.149E+00  0.134E-02  0.213E-01  0.127E+00
  -9.419  0.150E+00  0.136E-02  0.212E-01  0.127E+00
  -9.409  0.151E+00  0.138E-02  0.211E-01  0.128E+00
  -9.399  0.151E+00  0.140E-02  0.210E-01  0.129E+00
  -9.389  0.152E+00  0.142E-02  0.208E-01  0.129E+00
  -9.379  0.151E+00  0.143E-02  0.204E-01  0.129E+00
  -9.369  0.150E+00  0.143E-02  0.201E-01  0.128E+00
  -9.359  0.149E+00  0.144E-02  0.197E-01  0.128E+00
  -9.349  0.148E+00  0.145E-02  0.194E-01  0.127E+00
  -9.339  0.147E+00  0.145E-02  0.191E-01  0.127E+00
  -9.329  0.147E+00  0.146E-02  0.187E-01  0.126E+00
  -9.319  0.146E+00  0.146E-02  0.184E-01  0.126E+00
  -9.309  0.145E+00  0.147E-02  0.181E-01  0.125E+00
  -9.299  0.144E+00  0.147E-02  0.178E-01  0.125E+00
  -9.289  0.143E+00  0.148E-02  0.175E-01  0.124E+00
  -9.279  0.142E+00  0.148E-02  0.172E-01  0.124E+00
  -9.269  0.142E+00  0.148E-02  0.169E-01  0.123E+00
  -9.259  0.141E+00  0.149E-02  0.166E-01  0.123E+00
  -9.249  0.140E+00  0.149E-02  0.163E-01  0.122E+00
  -9.239  0.139E+00  0.149E-02  0.161E-01  0.121E+00
  -9.229  0.138E+00  0.149E-02  0.158E-01  0.121E+00
  -9.219  0.138E+00  0.150E-02  0.155E-01  0.120E+00
  -9.209  0.138E+00  0.152E-02  0.153E-01  0.121E+00
  -9.199  0.138E+00  0.154E-02  0.151E-01  0.121E+00
  -9.189  0.138E+00  0.155E-02  0.148E-01  0.122E+00
  -9.179  0.141E+00  0.199E-02  0.166E-01  0.122E+00
  -9.169  0.146E+00  0.282E-02  0.201E-01  0.123E+00
  -9.159  0.150E+00  0.368E-02  0.234E-01  0.123E+00
  -9.149  0.155E+00  0.458E-02  0.267E-01  0.124E+00
  -9.139  0.160E+00  0.552E-02  0.300E-01  0.124E+00
  -9.129  0.164E+00  0.650E-02  0.331E-01  0.125E+00
  -9.119  0.169E+00  0.752E-02  0.362E-01  0.126E+00
  -9.109  0.175E+00  0.858E-02  0.393E-01  0.127E+00
  -9.099  0.180E+00  0.968E-02  0.424E-01  0.128E+00
  -9.089  0.186E+00  0.108E-01  0.453E-01  0.130E+00
  -9.079  0.191E+00  0.120E-01  0.482E-01  0.131E+00
  -9.069  0.196E+00  0.132E-01  0.509E-01  0.132E+00
  -9.059  0.207E+00  0.145E-01  0.539E-01  0.138E+00
  -9.049  0.200E+00  0.112E-01  0.422E-01  0.147E+00
  -9.039  0.198E+00  0.117E-01  0.419E-01  0.144E+00
  -9.029  0.195E+00  0.122E-01  0.417E-01  0.141E+00
  -9.019  0.192E+00  0.127E-01  0.414E-01  0.138E+00
  -9.009  0.189E+00  0.132E-01  0.411E-01  0.135E+00
  -8.999  0.187E+00  0.137E-01  0.409E-01  0.132E+00
  -8.989  0.184E+00  0.142E-01  0.406E-01  0.129E+00
  -8.979  0.181E+00  0.147E-01  0.404E-01  0.126E+00
  -8.969  0.179E+00  0.153E-01  0.401E-01  0.123E+00
  -8.959  0.214E+00  0.172E-01  0.741E-01  0.123E+00
  -8.949  0.211E+00  0.177E-01  0.735E-01  0.120E+00
  -8.939  0.208E+00  0.183E-01  0.728E-01  0.117E+00
  -8.929  0.205E+00  0.189E-01  0.722E-01  0.114E+00
  -8.919  0.202E+00  0.195E-01  0.715E-01  0.111E+00
  -8.909  0.199E+00  0.201E-01  0.709E-01  0.108E+00
  -8.899  0.196E+00  0.207E-01  0.702E-01  0.105E+00
  -8.889  0.193E+00  0.213E-01  0.695E-01  0.102E+00
  -8.879  0.190E+00  0.219E-01  0.689E-01  0.990E-01
  -8.869  0.189E+00  0.228E-01  0.685E-01  0.976E-01
  -8.859  0.192E+00  0.242E-01  0.687E-01  0.987E-01
  -8.849  0.194E+00  0.256E-01  0.688E-01  0.999E-01
  -8.839  0.197E+00  0.271E-01  0.688E-01  0.101E+00
  -8.829  0.200E+00  0.286E-01  0.688E-01  0.102E+00
  -8.819  0.202E+00  0.302E-01  0.687E-01  0.103E+00
  -8.809  0.205E+00  0.318E-01  0.689E-01  0.104E+00
  -8.799  0.208E+00  0.334E-01  0.694E-01  0.106E+00
  -8.789  0.225E+00  0.348E-01  0.703E-01  0.120E+00
  -8.779  0.231E+00  0.361E-01  0.706E-01  0.124E+00
  -8.769  0.237E+00  0.374E-01  0.708E-01  0.129E+00
  -8.759  0.243E+00  0.387E-01  0.710E-01  0.133E+00
  -8.749  0.249E+00  0.401E-01  0.712E-01  0.138E+00
  -8.739  0.256E+00  0.415E-01  0.713E-01  0.143E+00
  -8.729  0.262E+00  0.428E-01  0.714E-01  0.148E+00
  -8.719  0.270E+00  0.443E-01  0.716E-01  0.154E+00
  -8.709  0.274E+00  0.457E-01  0.715E-01  0.157E+00
  -8.699  0.279E+00  0.471E-01  0.713E-01  0.161E+00
  -8.689  0.284E+00  0.485E-01  0.711E-01  0.164E+00
  -8.679  0.288E+00  0.500E-01  0.708E-01  0.168E+00
  -8.669  0.291E+00  0.514E-01  0.705E-01  0.169E+00
  -8.659  0.293E+00  0.529E-01  0.702E-01  0.170E+00
  -8.649  0.295E+00  0.544E-01  0.699E-01  0.170E+00
  -8.639  0.305E+00  0.612E-01  0.724E-01  0.171E+00
  -8.629  0.308E+00  0.633E-01  0.726E-01  0.172E+00
  -8.619  0.310E+00  0.654E-01  0.728E-01  0.172E+00
  -8.609  0.313E+00  0.675E-01  0.730E-01  0.172E+00
  -8.599  0.316E+00  0.696E-01  0.732E-01  0.173E+00
  -8.589  0.318E+00  0.718E-01  0.735E-01  0.173E+00
  -8.579  0.288E+00  0.733E-01  0.730E-01  0.142E+00
  -8.569  0.291E+00  0.754E-01  0.731E-01  0.143E+00
  -8.559  0.293E+00  0.768E-01  0.730E-01  0.144E+00
  -8.549  0.341E+00  0.928E-01  0.962E-01  0.152E+00
  -8.539  0.369E+00  0.108E+00  0.104E+00  0.158E+00
  -8.529  0.397E+00  0.123E+00  0.111E+00  0.164E+00
  -8.519  0.425E+00  0.137E+00  0.117E+00  0.171E+00
  -8.509  0.453E+00  0.151E+00  0.124E+00  0.178E+00
  -8.499  0.419E+00  0.119E+00  0.113E+00  0.186E+00
  -8.489  0.441E+00  0.121E+00  0.115E+00  0.206E+00
  -8.479  0.486E+00  0.123E+00  0.121E+00  0.242E+00
  -8.469  0.532E+00  0.126E+00  0.132E+00  0.274E+00
  -8.459  0.581E+00  0.131E+00  0.149E+00  0.301E+00
  -8.449  0.630E+00  0.135E+00  0.171E+00  0.323E+00
  -8.439  0.679E+00  0.140E+00  0.199E+00  0.341E+00
  -8.429  0.508E+00  0.137E+00  0.163E+00  0.209E+00
  -8.419  0.403E+00  0.133E+00  0.112E+00  0.158E+00
  -8.409  0.300E+00  0.131E+00  0.753E-01  0.937E-01
  -8.399  0.247E+00  0.129E+00  0.542E-01  0.633E-01
  -8.389  0.196E+00  0.129E+00  0.452E-01  0.217E-01
  -8.379  0.183E+00  0.129E+00  0.455E-01  0.841E-02
  -8.369  0.182E+00  0.129E+00  0.453E-01  0.854E-02
  -8.359  0.182E+00  0.128E+00  0.451E-01  0.866E-02
  -8.349  0.181E+00  0.127E+00  0.448E-01  0.877E-02
  -8.339  0.180E+00  0.126E+00  0.444E-01  0.886E-02
  -8.329  0.179E+00  0.126E+00  0.439E-01  0.895E-02
  -8.319  0.178E+00  0.125E+00  0.434E-01  0.902E-02
  -8.309  0.177E+00  0.125E+00  0.431E-01  0.913E-02
  -8.299  0.178E+00  0.126E+00  0.436E-01  0.935E-02
  -8.289  0.180E+00  0.126E+00  0.440E-01  0.957E-02
  -8.279  0.185E+00  0.130E+00  0.453E-01  0.100E-01
  -8.269  0.188E+00  0.131E+00  0.461E-01  0.104E-01
  -8.259  0.190E+00  0.133E+00  0.470E-01  0.107E-01
  -8.249  0.316E+00  0.135E+00  0.548E-01  0.126E+00
  -8.239  0.346E+00  0.138E+00  0.633E-01  0.145E+00
  -8.229  0.376E+00  0.140E+00  0.720E-01  0.164E+00
  -8.219  0.406E+00  0.143E+00  0.808E-01  0.183E+00
  -8.209  0.435E+00  0.145E+00  0.897E-01  0.201E+00
  -8.199  0.464E+00  0.147E+00  0.987E-01  0.218E+00
  -8.189  0.834E+00  0.163E+00  0.149E+00  0.522E+00
  -8.179  0.738E+00  0.179E+00  0.196E+00  0.363E+00
  -8.169  0.671E+00  0.179E+00  0.195E+00  0.298E+00
  -8.159  0.616E+00  0.177E+00  0.190E+00  0.250E+00
  -8.149  0.560E+00  0.173E+00  0.175E+00  0.213E+00
  -8.139  0.511E+00  0.168E+00  0.155E+00  0.188E+00
  -8.129  0.510E+00  0.171E+00  0.158E+00  0.181E+00
  -8.119  0.510E+00  0.174E+00  0.161E+00  0.175E+00
  -8.109  0.522E+00  0.184E+00  0.166E+00  0.173E+00
  -8.099  0.549E+00  0.202E+00  0.172E+00  0.175E+00
  -8.089  0.578E+00  0.220E+00  0.179E+00  0.179E+00
  -8.079  0.595E+00  0.228E+00  0.185E+00  0.182E+00
  -8.069  0.607E+00  0.233E+00  0.189E+00  0.185E+00
  -8.059  0.503E+00  0.237E+00  0.193E+00  0.736E-01
  -8.049  0.513E+00  0.241E+00  0.197E+00  0.751E-01
  -8.039  0.523E+00  0.244E+00  0.201E+00  0.769E-01
  -8.029  0.534E+00  0.249E+00  0.207E+00  0.793E-01
  -8.019  0.546E+00  0.252E+00  0.212E+00  0.817E-01
  -8.009  0.459E+00  0.207E+00  0.184E+00  0.682E-01
  -7.999  0.436E+00  0.194E+00  0.178E+00  0.651E-01
  -7.989  0.413E+00  0.180E+00  0.171E+00  0.619E-01
  -7.979  0.390E+00  0.167E+00  0.165E+00  0.587E-01
  -7.969  0.367E+00  0.154E+00  0.158E+00  0.554E-01
  -7.959  0.344E+00  0.141E+00  0.151E+00  0.521E-01
  -7.949  0.332E+00  0.134E+00  0.147E+00  0.504E-01
  -7.939  0.322E+00  0.128E+00  0.145E+00  0.491E-01
  -7.929  0.311E+00  0.122E+00  0.142E+00  0.478E-01
  -7.919  0.301E+00  0.116E+00  0.139E+00  0.464E-01
  -7.909  0.292E+00  0.110E+00  0.136E+00  0.452E-01
  -7.899  0.341E+00  0.115E+00  0.172E+00  0.551E-01
  -7.889  0.352E+00  0.113E+00  0.181E+00  0.574E-01
  -7.879  0.362E+00  0.114E+00  0.189E+00  0.597E-01
  -7.869  0.373E+00  0.115E+00  0.196E+00  0.619E-01
  -7.859  0.354E+00  0.105E+00  0.190E+00  0.597E-01
  -7.849  0.326E+00  0.915E-01  0.179E+00  0.558E-01
  -7.839  0.298E+00  0.792E-01  0.167E+00  0.517E-01
  -7.829  0.270E+00  0.680E-01  0.155E+00  0.474E-01
  -7.819  0.223E+00  0.547E-01  0.129E+00  0.395E-01
  -7.809  0.128E+00  0.307E-01  0.743E-01  0.234E-01
  -7.799  0.626E-01  0.106E-01  0.397E-01  0.123E-01
  -7.789  0.630E-01  0.105E-01  0.400E-01  0.126E-01
  -7.779  0.637E-01  0.104E-01  0.405E-01  0.128E-01
  -7.769  0.650E-01  0.105E-01  0.414E-01  0.132E-01
  -7.759  0.664E-01  0.105E-01  0.423E-01  0.136E-01
  -7.749  0.678E-01  0.106E-01  0.431E-01  0.141E-01
  -7.739  0.692E-01  0.107E-01  0.440E-01  0.145E-01
  -7.729  0.706E-01  0.108E-01  0.448E-01  0.149E-01
  -7.719  0.717E-01  0.109E-01  0.455E-01  0.153E-01
  -7.709  0.725E-01  0.109E-01  0.460E-01  0.156E-01
  -7.699  0.734E-01  0.110E-01  0.464E-01  0.160E-01
  -7.689  0.743E-01  0.110E-01  0.469E-01  0.163E-01
  -7.679  0.751E-01  0.111E-01  0.474E-01  0.167E-01
  -7.669  0.760E-01  0.111E-01  0.478E-01  0.170E-01
  -7.659  0.768E-01  0.112E-01  0.483E-01  0.174E-01
  -7.649  0.777E-01  0.113E-01  0.487E-01  0.177E-01
  -7.639  0.785E-01  0.113E-01  0.492E-01  0.181E-01
  -7.629  0.794E-01  0.114E-01  0.496E-01  0.184E-01
  -7.619  0.803E-01  0.114E-01  0.500E-01  0.188E-01
  -7.609  0.811E-01  0.115E-01  0.505E-01  0.192E-01
  -7.599  0.820E-01  0.116E-01  0.509E-01  0.195E-01
  -7.589  0.829E-01  0.117E-01  0.513E-01  0.199E-01
  -7.579  0.837E-01  0.117E-01  0.517E-01  0.203E-01
  -7.569  0.846E-01  0.118E-01  0.521E-01  0.206E-01
  -7.559  0.854E-01  0.119E-01  0.525E-01  0.210E-01
  -7.549  0.862E-01  0.119E-01  0.529E-01  0.214E-01
  -7.539  0.871E-01  0.120E-01  0.533E-01  0.218E-01
  -7.529  0.879E-01  0.121E-01  0.536E-01  0.222E-01
  -7.519  0.887E-01  0.122E-01  0.540E-01  0.225E-01
  -7.509  0.895E-01  0.123E-01  0.544E-01  0.229E-01
  -7.499  0.904E-01  0.123E-01  0.547E-01  0.233E-01
  -7.489  0.912E-01  0.124E-01  0.551E-01  0.237E-01
  -7.479  0.920E-01  0.125E-01  0.554E-01  0.241E-01
  -7.469  0.929E-01  0.126E-01  0.558E-01  0.245E-01
  -7.459  0.937E-01  0.127E-01  0.561E-01  0.249E-01
  -7.449  0.109E+00  0.147E-01  0.648E-01  0.291E-01
  -7.439  0.113E+00  0.154E-01  0.672E-01  0.306E-01
  -7.429  0.118E+00  0.162E-01  0.696E-01  0.321E-01
  -7.419  0.123E+00  0.170E-01  0.720E-01  0.336E-01
  -7.409  0.127E+00  0.178E-01  0.743E-01  0.352E-01
  -7.399  0.132E+00  0.187E-01  0.765E-01  0.368E-01
  -7.389  0.137E+00  0.196E-01  0.787E-01  0.384E-01
  -7.379  0.141E+00  0.206E-01  0.809E-01  0.400E-01
  -7.369  0.145E+00  0.215E-01  0.826E-01  0.414E-01
  -7.359  0.149E+00  0.224E-01  0.842E-01  0.428E-01
  -7.349  0.153E+00  0.233E-01  0.857E-01  0.443E-01
  -7.339  0.157E+00  0.243E-01  0.872E-01  0.457E-01
  -7.329  0.161E+00  0.253E-01  0.886E-01  0.471E-01
  -7.319  0.165E+00  0.263E-01  0.899E-01  0.486E-01
  -7.309  0.169E+00  0.274E-01  0.913E-01  0.501E-01
  -7.299  0.173E+00  0.285E-01  0.925E-01  0.516E-01
  -7.289  0.177E+00  0.297E-01  0.938E-01  0.530E-01
  -7.279  0.180E+00  0.309E-01  0.950E-01  0.546E-01
  -7.269  0.184E+00  0.321E-01  0.961E-01  0.561E-01
  -7.259  0.189E+00  0.335E-01  0.976E-01  0.578E-01
  -7.249  0.285E+00  0.549E-01  0.142E+00  0.880E-01
  -7.239  0.408E+00  0.891E-01  0.194E+00  0.125E+00
  -7.229  0.494E+00  0.123E+00  0.222E+00  0.149E+00
  -7.219  0.544E+00  0.153E+00  0.229E+00  0.161E+00
  -7.209  0.593E+00  0.186E+00  0.234E+00  0.172E+00
  -7.199  0.575E+00  0.192E+00  0.219E+00  0.164E+00
  -7.189  0.591E+00  0.213E+00  0.215E+00  0.163E+00
  -7.179  0.683E+00  0.259E+00  0.239E+00  0.184E+00
  -7.169  0.695E+00  0.289E+00  0.227E+00  0.179E+00
  -7.159  0.706E+00  0.319E+00  0.214E+00  0.173E+00
  -7.149  0.717E+00  0.351E+00  0.200E+00  0.166E+00
  -7.139  0.697E+00  0.362E+00  0.181E+00  0.154E+00
  -7.129  0.734E+00  0.395E+00  0.182E+00  0.158E+00
  -7.119  0.596E+00  0.367E+00  0.117E+00  0.112E+00
  -7.109  0.466E+00  0.315E+00  0.736E-01  0.772E-01
  -7.099  0.458E+00  0.325E+00  0.622E-01  0.700E-01
  -7.089  0.454E+00  0.339E+00  0.514E-01  0.636E-01
  -7.079  0.451E+00  0.352E+00  0.412E-01  0.578E-01
  -7.069  0.448E+00  0.364E+00  0.318E-01  0.525E-01
  -7.059  0.585E+00  0.496E+00  0.272E-01  0.618E-01
  -7.049  0.282E+00  0.233E+00  0.183E-01  0.308E-01
  -7.039  0.264E+00  0.220E+00  0.160E-01  0.279E-01
  -7.029  0.246E+00  0.207E+00  0.139E-01  0.251E-01
  -7.019  0.228E+00  0.193E+00  0.121E-01  0.225E-01
  -7.009  0.209E+00  0.179E+00  0.105E-01  0.200E-01
  -6.999  0.191E+00  0.165E+00  0.907E-02  0.177E-01
  -6.989  0.174E+00  0.150E+00  0.790E-02  0.155E-01
  -6.979  0.179E+00  0.156E+00  0.716E-02  0.153E-01
  -6.969  0.190E+00  0.167E+00  0.678E-02  0.156E-01
  -6.959  0.201E+00  0.178E+00  0.674E-02  0.159E-01
  -6.949  0.212E+00  0.189E+00  0.702E-02  0.163E-01
  -6.939  0.119E+00  0.106E+00  0.428E-02  0.887E-02
  -6.929  0.115E+00  0.102E+00  0.408E-02  0.846E-02
  -6.919  0.111E+00  0.987E-01  0.388E-02  0.805E-02
  -6.909  0.106E+00  0.951E-01  0.369E-02  0.765E-02
  -6.899  0.102E+00  0.916E-01  0.350E-02  0.725E-02
  -6.889  0.983E-01  0.881E-01  0.331E-02  0.687E-02
  -6.879  0.942E-01  0.845E-01  0.314E-02  0.650E-02
  -6.869  0.901E-01  0.810E-01  0.296E-02  0.613E-02
  -6.859  0.860E-01  0.774E-01  0.280E-02  0.577E-02
  -6.849  0.819E-01  0.739E-01  0.263E-02  0.543E-02
  -6.839  0.779E-01  0.703E-01  0.248E-02  0.509E-02
  -6.829  0.738E-01  0.668E-01  0.232E-02  0.476E-02
  -6.819  0.698E-01  0.632E-01  0.218E-02  0.444E-02
  -6.809  0.657E-01  0.596E-01  0.203E-02  0.413E-02
  -6.799  0.617E-01  0.560E-01  0.189E-02  0.382E-02
  -6.789  0.577E-01  0.524E-01  0.176E-02  0.353E-02
  -6.779  0.537E-01  0.488E-01  0.163E-02  0.324E-02
  -6.769  0.523E-01  0.477E-01  0.157E-02  0.312E-02
  -6.759  0.540E-01  0.493E-01  0.158E-02  0.318E-02
  -6.749  0.557E-01  0.509E-01  0.162E-02  0.324E-02
  -6.739  0.575E-01  0.525E-01  0.167E-02  0.330E-02
  -6.729  0.592E-01  0.541E-01  0.175E-02  0.336E-02
  -6.719  0.609E-01  0.557E-01  0.185E-02  0.342E-02
  -6.709  0.627E-01  0.573E-01  0.196E-02  0.349E-02
  -6.699  0.645E-01  0.588E-01  0.210E-02  0.355E-02
  -6.689  0.000E+00  0.000E+00  0.000E+00  0.000E+00
  -6.679  0.000E+00  0.000E+00  0.000E+00  0.000E+00
  -6.669  0.000E+00  0.000E+00  0.000E+00  0.000E+00
  -6.659  0.000E+00  0.000E+00  0.000E+00  0.000E+00
  -6.649  0.000E+00  0.000E+00  0.000E+00  0.000E+00
  -6.639  0.000E+00  0.000E+00  0.000E+00  0.000E+00
  -6.629  0.000E+00  0.000E+00  0.000E+00  0.000E+00
  -6.619  0.000E+00  0.000E+00  0.000E+00  0.000E+00
  -6.609  0.000E+00  0.000E+00  0.000E+00  0.000E+00
  -6.599  0.000E+00  0.000E+00  0.000E+00  0.000E+00
  -6.589  0.000E+00  0.000E+00  0.000E+00  0.000E+00
  -6.579  0.000E+00  0.000E+00  0.000E+00  0.000E+00
  -6.569  0.000E+00  0.000E+00  0.000E+00  0.000E+00
  -6.559  0.000E+00  0.000E+00  0.000E+00  0.000E+00
  -6.549  0.000E+00  0.000E+00  0.000E+00  0.000E+00
  -6.539  0.000E+00  0.000E+00  0.000E+00  0.000E+00
  -6.529  0.000E+00  0.000E+00  0.000E+00  0.000E+00
  -6.519  0.000E+00  0.000E+00  0.000E+00  0.000E+00
  -6.509  0.000E+00  0.000E+00  0.000E+00  0.000E+00
  -6.499  0.000E+00  0.000E+00  0.000E+00  0.000E+00
  -6.489  0.000E+00  0.000E+00  0.000E+00  0.000E+00
  -6.479  0.000E+00  0.000E+00  0.000E+00  0.000E+00
  -6.469  0.000E+00  0.000E+00  0.000E+00  0.000E+00
  -6.459  0.000E+00  0.000E+00  0.000E+00  0.000E+00
  -6.449  0.000E+00  0.000E+00  0.000E+00  0.000E+00
  -6.439  0.000E+00  0.000E+00  0.000E+00  0.000E+00
  -6.429  0.000E+00  0.000E+00  0.000E+00  0.000E+00
  -6.419  0.000E+00  0.000E+00  0.000E+00  0.000E+00
  -6.409  0.000E+00  0.000E+00  0.000E+00  0.000E+00
  -6.399  0.138E-01  0.552E-02  0.540E-02  0.286E-02
  -6.389  0.150E+00  0.120E+00  0.172E-01  0.130E-01
  -6.379  0.149E+00  0.111E+00  0.224E-01  0.152E-01
  -6.369  0.147E+00  0.103E+00  0.270E-01  0.172E-01
  -6.359  0.145E+00  0.954E-01  0.310E-01  0.190E-01
  -6.349  0.143E+00  0.879E-01  0.345E-01  0.206E-01
  -6.339  0.154E+00  0.928E-01  0.386E-01  0.230E-01
  -6.329  0.364E+00  0.218E+00  0.922E-01  0.540E-01
  -6.319  0.211E+00  0.137E+00  0.463E-01  0.283E-01
  -6.309  0.233E+00  0.153E+00  0.491E-01  0.304E-01
  -6.299  0.255E+00  0.170E+00  0.518E-01  0.324E-01
  -6.289  0.276E+00  0.187E+00  0.543E-01  0.344E-01
  -6.279  0.298E+00  0.205E+00  0.567E-01  0.363E-01
  -6.269  0.319E+00  0.222E+00  0.589E-01  0.381E-01
  -6.259  0.341E+00  0.240E+00  0.609E-01  0.399E-01
  -6.249  0.362E+00  0.258E+00  0.628E-01  0.417E-01
  -6.239  0.235E+00  0.161E+00  0.446E-01  0.294E-01
  -6.229  0.227E+00  0.155E+00  0.428E-01  0.285E-01
  -6.219  0.219E+00  0.150E+00  0.411E-01  0.276E-01
  -6.209  0.211E+00  0.145E+00  0.394E-01  0.266E-01
  -6.199  0.203E+00  0.139E+00  0.377E-01  0.257E-01
  -6.189  0.195E+00  0.134E+00  0.361E-01  0.248E-01
  -6.179  0.188E+00  0.129E+00  0.349E-01  0.241E-01
  -6.169  0.181E+00  0.124E+00  0.338E-01  0.234E-01
  -6.159  0.175E+00  0.119E+00  0.327E-01  0.228E-01
  -6.149  0.168E+00  0.115E+00  0.316E-01  0.222E-01
  -6.139  0.157E+00  0.106E+00  0.301E-01  0.211E-01
  -6.129  0.153E+00  0.103E+00  0.293E-01  0.207E-01
  -6.119  0.150E+00  0.101E+00  0.284E-01  0.203E-01
  -6.109  0.148E+00  0.999E-01  0.280E-01  0.201E-01
  -6.099  0.146E+00  0.989E-01  0.276E-01  0.199E-01
  -6.089  0.145E+00  0.980E-01  0.272E-01  0.198E-01
  -6.079  0.143E+00  0.970E-01  0.268E-01  0.196E-01
  -6.069  0.142E+00  0.961E-01  0.264E-01  0.195E-01
  -6.059  0.140E+00  0.951E-01  0.260E-01  0.193E-01
  -6.049  0.139E+00  0.942E-01  0.256E-01  0.192E-01
  -6.039  0.137E+00  0.932E-01  0.252E-01  0.190E-01
  -6.029  0.136E+00  0.923E-01  0.249E-01  0.189E-01
  -6.019  0.135E+00  0.913E-01  0.245E-01  0.187E-01
  -6.009  0.133E+00  0.903E-01  0.242E-01  0.185E-01
  -5.999  0.132E+00  0.894E-01  0.238E-01  0.184E-01
  -5.989  0.130E+00  0.884E-01  0.235E-01  0.182E-01
  -5.979  0.129E+00  0.874E-01  0.232E-01  0.181E-01
  -5.969  0.127E+00  0.864E-01  0.228E-01  0.179E-01
  -5.959  0.126E+00  0.855E-01  0.225E-01  0.178E-01
  -5.949  0.124E+00  0.846E-01  0.222E-01  0.177E-01
  -5.939  0.123E+00  0.838E-01  0.220E-01  0.176E-01
  -5.929  0.122E+00  0.830E-01  0.218E-01  0.175E-01
  -5.919  0.121E+00  0.822E-01  0.216E-01  0.174E-01
  -5.909  0.120E+00  0.814E-01  0.214E-01  0.173E-01
  -5.899  0.119E+00  0.804E-01  0.211E-01  0.172E-01
  -5.889  0.117E+00  0.792E-01  0.209E-01  0.170E-01
  -5.879  0.116E+00  0.781E-01  0.206E-01  0.169E-01
  -5.869  0.114E+00  0.769E-01  0.204E-01  0.168E-01
  -5.859  0.113E+00  0.758E-01  0.201E-01  0.166E-01
  -5.849  0.111E+00  0.746E-01  0.199E-01  0.165E-01
  -5.839  0.110E+00  0.735E-01  0.197E-01  0.164E-01
  -5.829  0.108E+00  0.724E-01  0.194E-01  0.162E-01
  -5.819  0.107E+00  0.712E-01  0.192E-01  0.161E-01
  -5.809  0.105E+00  0.701E-01  0.190E-01  0.160E-01
  -5.799  0.104E+00  0.695E-01  0.188E-01  0.159E-01
  -5.789  0.104E+00  0.692E-01  0.187E-01  0.158E-01
  -5.779  0.103E+00  0.688E-01  0.185E-01  0.158E-01
  -5.769  0.103E+00  0.685E-01  0.184E-01  0.157E-01
  -5.759  0.102E+00  0.681E-01  0.183E-01  0.157E-01
  -5.749  0.102E+00  0.677E-01  0.181E-01  0.156E-01
  -5.739  0.101E+00  0.674E-01  0.180E-01  0.156E-01
  -5.729  0.100E+00  0.670E-01  0.179E-01  0.155E-01
  -5.719  0.999E-01  0.667E-01  0.178E-01  0.155E-01
  -5.709  0.994E-01  0.663E-01  0.176E-01  0.154E-01
  -5.699  0.989E-01  0.660E-01  0.175E-01  0.154E-01
  -5.689  0.983E-01  0.656E-01  0.174E-01  0.153E-01
  -5.679  0.978E-01  0.652E-01  0.173E-01  0.153E-01
  -5.669  0.972E-01  0.648E-01  0.171E-01  0.152E-01
  -5.659  0.967E-01  0.645E-01  0.170E-01  0.152E-01
  -5.649  0.961E-01  0.641E-01  0.169E-01  0.151E-01
  -5.639  0.955E-01  0.637E-01  0.168E-01  0.151E-01
  -5.629  0.950E-01  0.633E-01  0.167E-01  0.150E-01
  -5.619  0.944E-01  0.629E-01  0.166E-01  0.150E-01
  -5.609  0.939E-01  0.625E-01  0.164E-01  0.149E-01
  -5.599  0.933E-01  0.621E-01  0.163E-01  0.149E-01
  -5.589  0.928E-01  0.617E-01  0.162E-01  0.148E-01
  -5.579  0.922E-01  0.613E-01  0.161E-01  0.148E-01
  -5.569  0.916E-01  0.609E-01  0.160E-01  0.147E-01
  -5.559  0.911E-01  0.605E-01  0.159E-01  0.146E-01
  -5.549  0.969E-01  0.630E-01  0.192E-01  0.147E-01
  -5.539  0.113E+00  0.702E-01  0.279E-01  0.150E-01
  -5.529  0.129E+00  0.772E-01  0.367E-01  0.153E-01
  -5.519  0.145E+00  0.840E-01  0.457E-01  0.157E-01
  -5.509  0.162E+00  0.907E-01  0.548E-01  0.163E-01
  -5.499  0.178E+00  0.971E-01  0.640E-01  0.169E-01
  -5.489  0.194E+00  0.103E+00  0.734E-01  0.175E-01
  -5.479  0.211E+00  0.109E+00  0.828E-01  0.183E-01
  -5.469  0.223E+00  0.112E+00  0.919E-01  0.186E-01
  -5.459  0.239E+00  0.118E+00  0.102E+00  0.196E-01
  -5.449  0.203E+00  0.103E+00  0.814E-01  0.183E-01
  -5.439  0.186E+00  0.952E-01  0.733E-01  0.180E-01
  -5.429  0.189E+00  0.953E-01  0.749E-01  0.183E-01
  -5.419  0.191E+00  0.955E-01  0.766E-01  0.186E-01
  -5.409  0.193E+00  0.956E-01  0.782E-01  0.189E-01
  -5.399  0.195E+00  0.957E-01  0.799E-01  0.193E-01
  -5.389  0.197E+00  0.958E-01  0.816E-01  0.196E-01
  -5.379  0.199E+00  0.959E-01  0.833E-01  0.199E-01
  -5.369  0.201E+00  0.959E-01  0.850E-01  0.203E-01
  -5.359  0.203E+00  0.959E-01  0.868E-01  0.207E-01
  -5.349  0.205E+00  0.959E-01  0.885E-01  0.211E-01
  -5.339  0.208E+00  0.958E-01  0.903E-01  0.215E-01
  -5.329  0.210E+00  0.958E-01  0.921E-01  0.219E-01
  -5.319  0.212E+00  0.957E-01  0.939E-01  0.223E-01
  -5.309  0.214E+00  0.956E-01  0.958E-01  0.227E-01
  -5.299  0.216E+00  0.954E-01  0.976E-01  0.232E-01
  -5.289  0.218E+00  0.952E-01  0.993E-01  0.236E-01
  -5.279  0.220E+00  0.949E-01  0.101E+00  0.240E-01
  -5.269  0.225E+00  0.957E-01  0.104E+00  0.246E-01
  -5.259  0.230E+00  0.967E-01  0.108E+00  0.253E-01
  -5.249  0.236E+00  0.975E-01  0.112E+00  0.261E-01
  -5.239  0.241E+00  0.982E-01  0.116E+00  0.269E-01
  -5.229  0.246E+00  0.984E-01  0.120E+00  0.276E-01
  -5.219  0.249E+00  0.982E-01  0.123E+00  0.282E-01
  -5.209  0.252E+00  0.979E-01  0.125E+00  0.288E-01
  -5.199  0.254E+00  0.976E-01  0.127E+00  0.293E-01
  -5.189  0.257E+00  0.973E-01  0.130E+00  0.299E-01
  -5.179  0.260E+00  0.968E-01  0.132E+00  0.305E-01
  -5.169  0.262E+00  0.962E-01  0.135E+00  0.311E-01
  -5.159  0.265E+00  0.956E-01  0.138E+00  0.317E-01
  -5.149  0.267E+00  0.949E-01  0.140E+00  0.323E-01
  -5.139  0.269E+00  0.941E-01  0.142E+00  0.328E-01
  -5.129  0.271E+00  0.932E-01  0.145E+00  0.334E-01
  -5.119  0.273E+00  0.923E-01  0.147E+00  0.340E-01
  -5.109  0.276E+00  0.913E-01  0.150E+00  0.346E-01
  -5.099  0.291E+00  0.932E-01  0.161E+00  0.367E-01
  -5.089  0.323E+00  0.978E-01  0.185E+00  0.408E-01
  -5.079  0.356E+00  0.101E+00  0.210E+00  0.452E-01
  -5.069  0.389E+00  0.104E+00  0.235E+00  0.501E-01
  -5.059  0.422E+00  0.105E+00  0.262E+00  0.553E-01
  -5.049  0.463E+00  0.107E+00  0.294E+00  0.619E-01
  -5.039  0.572E+00  0.114E+00  0.380E+00  0.784E-01
  -5.029  0.548E+00  0.110E+00  0.363E+00  0.759E-01
  -5.019  0.522E+00  0.106E+00  0.343E+00  0.730E-01
  -5.009  0.496E+00  0.103E+00  0.323E+00  0.701E-01
  -4.999  0.469E+00  0.998E-01  0.303E+00  0.670E-01
  -4.989  0.443E+00  0.971E-01  0.282E+00  0.639E-01
  -4.979  0.415E+00  0.947E-01  0.260E+00  0.607E-01
  -4.969  0.390E+00  0.923E-01  0.240E+00  0.579E-01
  -4.959  0.383E+00  0.907E-01  0.234E+00  0.574E-01
  -4.949  0.375E+00  0.892E-01  0.228E+00  0.569E-01
  -4.939  0.367E+00  0.878E-01  0.222E+00  0.564E-01
  -4.929  0.358E+00  0.863E-01  0.216E+00  0.558E-01
  -4.919  0.350E+00  0.850E-01  0.210E+00  0.551E-01
  -4.909  0.330E+00  0.822E-01  0.196E+00  0.519E-01
  -4.899  0.300E+00  0.774E-01  0.175E+00  0.471E-01
  -4.889  0.277E+00  0.730E-01  0.161E+00  0.438E-01
  -4.879  0.274E+00  0.724E-01  0.158E+00  0.435E-01
  -4.869  0.270E+00  0.719E-01  0.155E+00  0.432E-01
  -4.859  0.307E+00  0.798E-01  0.179E+00  0.485E-01
  -4.849  0.299E+00  0.851E-01  0.167E+00  0.462E-01
  -4.839  0.290E+00  0.895E-01  0.156E+00  0.440E-01
  -4.829  0.280E+00  0.930E-01  0.145E+00  0.420E-01
  -4.819  0.271E+00  0.956E-01  0.135E+00  0.401E-01
  -4.809  0.261E+00  0.973E-01  0.126E+00  0.383E-01
  -4.799  0.251E+00  0.981E-01  0.117E+00  0.366E-01
  -4.789  0.241E+00  0.980E-01  0.108E+00  0.350E-01
  -4.779  0.231E+00  0.969E-01  0.100E+00  0.335E-01
  -4.769  0.220E+00  0.950E-01  0.930E-01  0.321E-01
  -4.759  0.209E+00  0.922E-01  0.862E-01  0.309E-01
  -4.749  0.136E+00  0.543E-01  0.566E-01  0.253E-01
  -4.739  0.136E+00  0.541E-01  0.563E-01  0.254E-01
  -4.729  0.135E+00  0.538E-01  0.559E-01  0.255E-01
  -4.719  0.235E+00  0.562E-01  0.135E+00  0.434E-01
  -4.709  0.279E+00  0.572E-01  0.171E+00  0.513E-01
  -4.699  0.323E+00  0.590E-01  0.205E+00  0.592E-01
  -4.689  0.435E+00  0.951E-01  0.267E+00  0.724E-01
  -4.679  0.483E+00  0.103E+00  0.300E+00  0.801E-01
  -4.669  0.531E+00  0.112E+00  0.332E+00  0.876E-01
  -4.659  0.510E+00  0.113E+00  0.313E+00  0.831E-01
  -4.649  0.539E+00  0.118E+00  0.334E+00  0.874E-01
  -4.639  0.551E+00  0.120E+00  0.343E+00  0.886E-01
  -4.629  0.567E+00  0.125E+00  0.352E+00  0.907E-01
  -4.619  0.583E+00  0.130E+00  0.360E+00  0.928E-01
  -4.609  0.644E+00  0.136E+00  0.405E+00  0.102E+00
  -4.599  0.738E+00  0.143E+00  0.477E+00  0.118E+00
  -4.589  0.832E+00  0.152E+00  0.547E+00  0.133E+00
  -4.579  0.921E+00  0.158E+00  0.615E+00  0.148E+00
  -4.569  0.124E+01  0.154E+00  0.894E+00  0.195E+00
  -4.559  0.106E+01  0.149E+00  0.751E+00  0.163E+00
  -4.549  0.129E+01  0.153E+00  0.936E+00  0.197E+00
  -4.539  0.830E+00  0.152E+00  0.549E+00  0.130E+00
  -4.529  0.688E+00  0.150E+00  0.429E+00  0.108E+00
  -4.519  0.571E+00  0.147E+00  0.335E+00  0.898E-01
  -4.509  0.538E+00  0.142E+00  0.311E+00  0.854E-01
  -4.499  0.516E+00  0.142E+00  0.291E+00  0.822E-01
  -4.489  0.494E+00  0.143E+00  0.272E+00  0.788E-01
  -4.479  0.472E+00  0.143E+00  0.253E+00  0.753E-01
  -4.469  0.450E+00  0.143E+00  0.235E+00  0.717E-01
  -4.459  0.428E+00  0.143E+00  0.217E+00  0.680E-01
  -4.449  0.415E+00  0.143E+00  0.205E+00  0.657E-01
  -4.439  0.408E+00  0.144E+00  0.199E+00  0.648E-01
  -4.429  0.402E+00  0.145E+00  0.194E+00  0.639E-01
  -4.419  0.396E+00  0.145E+00  0.188E+00  0.629E-01
  -4.409  0.390E+00  0.146E+00  0.183E+00  0.619E-01
  -4.399  0.384E+00  0.146E+00  0.177E+00  0.609E-01
  -4.389  0.379E+00  0.147E+00  0.172E+00  0.599E-01
  -4.379  0.373E+00  0.147E+00  0.167E+00  0.588E-01
  -4.369  0.367E+00  0.148E+00  0.161E+00  0.578E-01
  -4.359  0.349E+00  0.147E+00  0.148E+00  0.540E-01
  -4.349  0.346E+00  0.147E+00  0.145E+00  0.534E-01
  -4.339  0.342E+00  0.148E+00  0.142E+00  0.528E-01
  -4.329  0.339E+00  0.149E+00  0.138E+00  0.521E-01
  -4.319  0.336E+00  0.149E+00  0.136E+00  0.517E-01
  -4.309  0.335E+00  0.150E+00  0.134E+00  0.515E-01
  -4.299  0.334E+00  0.151E+00  0.132E+00  0.512E-01
  -4.289  0.333E+00  0.152E+00  0.130E+00  0.510E-01
  -4.279  0.332E+00  0.153E+00  0.129E+00  0.507E-01
  -4.269  0.331E+00  0.154E+00  0.127E+00  0.505E-01
  -4.259  0.325E+00  0.150E+00  0.125E+00  0.502E-01
  -4.249  0.323E+00  0.150E+00  0.123E+00  0.499E-01
  -4.239  0.321E+00  0.150E+00  0.121E+00  0.496E-01
  -4.229  0.319E+00  0.150E+00  0.120E+00  0.493E-01
  -4.219  0.317E+00  0.150E+00  0.118E+00  0.490E-01
  -4.209  0.314E+00  0.149E+00  0.116E+00  0.487E-01
  -4.199  0.312E+00  0.149E+00  0.115E+00  0.484E-01
  -4.189  0.310E+00  0.149E+00  0.113E+00  0.480E-01
  -4.179  0.308E+00  0.149E+00  0.111E+00  0.477E-01
  -4.169  0.306E+00  0.148E+00  0.110E+00  0.473E-01
  -4.159  0.303E+00  0.148E+00  0.108E+00  0.469E-01
  -4.149  0.302E+00  0.148E+00  0.107E+00  0.466E-01
  -4.139  0.299E+00  0.148E+00  0.105E+00  0.462E-01
  -4.129  0.297E+00  0.148E+00  0.104E+00  0.457E-01
  -4.119  0.295E+00  0.148E+00  0.102E+00  0.453E-01
  -4.109  0.293E+00  0.148E+00  0.100E+00  0.449E-01
  -4.099  0.291E+00  0.148E+00  0.987E-01  0.444E-01
  -4.089  0.289E+00  0.148E+00  0.971E-01  0.440E-01
  -4.079  0.287E+00  0.148E+00  0.956E-01  0.435E-01
  -4.069  0.285E+00  0.148E+00  0.940E-01  0.431E-01
  -4.059  0.283E+00  0.148E+00  0.925E-01  0.427E-01
  -4.049  0.281E+00  0.148E+00  0.910E-01  0.423E-01
  -4.039  0.280E+00  0.148E+00  0.903E-01  0.421E-01
  -4.029  0.280E+00  0.148E+00  0.896E-01  0.420E-01
  -4.019  0.279E+00  0.148E+00  0.889E-01  0.419E-01
  -4.009  0.275E+00  0.148E+00  0.865E-01  0.407E-01
  -3.999  0.275E+00  0.148E+00  0.859E-01  0.406E-01
  -3.989  0.274E+00  0.149E+00  0.853E-01  0.405E-01
  -3.979  0.274E+00  0.149E+00  0.846E-01  0.404E-01
  -3.969  0.273E+00  0.149E+00  0.840E-01  0.403E-01
  -3.959  0.276E+00  0.152E+00  0.837E-01  0.402E-01
  -3.949  0.275E+00  0.152E+00  0.831E-01  0.401E-01
  -3.939  0.275E+00  0.153E+00  0.825E-01  0.399E-01
  -3.929  0.275E+00  0.153E+00  0.819E-01  0.398E-01
  -3.919  0.275E+00  0.154E+00  0.813E-01  0.397E-01
  -3.909  0.274E+00  0.154E+00  0.807E-01  0.396E-01
  -3.899  0.274E+00  0.155E+00  0.801E-01  0.395E-01
  -3.889  0.274E+00  0.155E+00  0.795E-01  0.393E-01
  -3.879  0.274E+00  0.155E+00  0.789E-01  0.392E-01
  -3.869  0.273E+00  0.156E+00  0.783E-01  0.391E-01
  -3.859  0.273E+00  0.156E+00  0.778E-01  0.389E-01
  -3.849  0.272E+00  0.156E+00  0.772E-01  0.388E-01
  -3.839  0.272E+00  0.157E+00  0.766E-01  0.386E-01
  -3.829  0.271E+00  0.157E+00  0.760E-01  0.385E-01
  -3.819  0.271E+00  0.157E+00  0.754E-01  0.383E-01
  -3.809  0.271E+00  0.158E+00  0.749E-01  0.382E-01
  -3.799  0.270E+00  0.158E+00  0.743E-01  0.381E-01
  -3.789  0.270E+00  0.158E+00  0.737E-01  0.379E-01
  -3.779  0.269E+00  0.158E+00  0.732E-01  0.378E-01
  -3.769  0.269E+00  0.159E+00  0.726E-01  0.376E-01
  -3.759  0.269E+00  0.159E+00  0.721E-01  0.375E-01
  -3.749  0.268E+00  0.159E+00  0.715E-01  0.373E-01
  -3.739  0.268E+00  0.160E+00  0.710E-01  0.372E-01
  -3.729  0.263E+00  0.160E+00  0.677E-01  0.357E-01
  -3.719  0.263E+00  0.160E+00  0.673E-01  0.356E-01
  -3.709  0.263E+00  0.160E+00  0.670E-01  0.355E-01
  -3.699  0.263E+00  0.161E+00  0.667E-01  0.355E-01
  -3.689  0.263E+00  0.161E+00  0.664E-01  0.354E-01
  -3.679  0.263E+00  0.161E+00  0.661E-01  0.353E-01
  -3.669  0.263E+00  0.162E+00  0.657E-01  0.353E-01
  -3.659  0.262E+00  0.162E+00  0.654E-01  0.352E-01
  -3.649  0.263E+00  0.162E+00  0.651E-01  0.351E-01
  -3.639  0.263E+00  0.163E+00  0.648E-01  0.351E-01
  -3.629  0.263E+00  0.164E+00  0.646E-01  0.350E-01
  -3.619  0.263E+00  0.164E+00  0.643E-01  0.349E-01
  -3.609  0.261E+00  0.163E+00  0.636E-01  0.343E-01
  -3.599  0.261E+00  0.163E+00  0.633E-01  0.342E-01
  -3.589  0.261E+00  0.164E+00  0.630E-01  0.341E-01
  -3.579  0.261E+00  0.165E+00  0.626E-01  0.340E-01
  -3.569  0.261E+00  0.165E+00  0.623E-01  0.339E-01
  -3.559  0.262E+00  0.166E+00  0.620E-01  0.338E-01
  -3.549  0.262E+00  0.166E+00  0.617E-01  0.337E-01
  -3.539  0.262E+00  0.167E+00  0.614E-01  0.336E-01
  -3.529  0.262E+00  0.168E+00  0.610E-01  0.335E-01
  -3.519  0.262E+00  0.168E+00  0.607E-01  0.334E-01
  -3.509  0.263E+00  0.169E+00  0.604E-01  0.333E-01
  -3.499  0.263E+00  0.169E+00  0.601E-01  0.332E-01
  -3.489  0.263E+00  0.170E+00  0.598E-01  0.331E-01
  -3.479  0.263E+00  0.170E+00  0.594E-01  0.329E-01
  -3.469  0.263E+00  0.171E+00  0.591E-01  0.328E-01
  -3.459  0.263E+00  0.171E+00  0.588E-01  0.327E-01
  -3.449  0.263E+00  0.172E+00  0.584E-01  0.326E-01
  -3.439  0.263E+00  0.172E+00  0.582E-01  0.325E-01
  -3.429  0.263E+00  0.173E+00  0.578E-01  0.324E-01
  -3.419  0.263E+00  0.173E+00  0.574E-01  0.322E-01
  -3.409  0.262E+00  0.173E+00  0.569E-01  0.320E-01
  -3.399  0.279E+00  0.190E+00  0.573E-01  0.318E-01
  -3.389  0.283E+00  0.194E+00  0.571E-01  0.316E-01
  -3.379  0.287E+00  0.198E+00  0.568E-01  0.315E-01
  -3.369  0.290E+00  0.203E+00  0.566E-01  0.313E-01
  -3.359  0.294E+00  0.207E+00  0.564E-01  0.311E-01
  -3.349  0.298E+00  0.211E+00  0.561E-01  0.309E-01
  -3.339  0.302E+00  0.216E+00  0.559E-01  0.307E-01
  -3.329  0.305E+00  0.219E+00  0.556E-01  0.305E-01
  -3.319  0.307E+00  0.222E+00  0.553E-01  0.303E-01
  -3.309  0.309E+00  0.224E+00  0.549E-01  0.301E-01
  -3.299  0.311E+00  0.227E+00  0.547E-01  0.299E-01
  -3.289  0.314E+00  0.229E+00  0.546E-01  0.298E-01
  -3.279  0.316E+00  0.232E+00  0.545E-01  0.298E-01
  -3.269  0.319E+00  0.234E+00  0.544E-01  0.297E-01
  -3.259  0.321E+00  0.237E+00  0.544E-01  0.296E-01
  -3.249  0.323E+00  0.240E+00  0.543E-01  0.296E-01
  -3.239  0.326E+00  0.242E+00  0.542E-01  0.295E-01
  -3.229  0.328E+00  0.245E+00  0.541E-01  0.294E-01
  -3.219  0.334E+00  0.250E+00  0.543E-01  0.294E-01
  -3.209  0.336E+00  0.252E+00  0.543E-01  0.293E-01
  -3.199  0.339E+00  0.255E+00  0.542E-01  0.292E-01
  -3.189  0.340E+00  0.257E+00  0.541E-01  0.292E-01
  -3.179  0.342E+00  0.259E+00  0.540E-01  0.291E-01
  -3.169  0.344E+00  0.261E+00  0.539E-01  0.290E-01
  -3.159  0.346E+00  0.263E+00  0.538E-01  0.289E-01
  -3.149  0.332E+00  0.250E+00  0.529E-01  0.288E-01
  -3.139  0.314E+00  0.234E+00  0.519E-01  0.287E-01
  -3.129  0.297E+00  0.217E+00  0.508E-01  0.286E-01
  -3.119  0.284E+00  0.206E+00  0.500E-01  0.285E-01
  -3.109  0.280E+00  0.202E+00  0.495E-01  0.284E-01
  -3.099  0.275E+00  0.197E+00  0.491E-01  0.283E-01
  -3.089  0.270E+00  0.193E+00  0.486E-01  0.282E-01
  -3.079  0.265E+00  0.189E+00  0.482E-01  0.281E-01
  -3.069  0.260E+00  0.184E+00  0.477E-01  0.279E-01
  -3.059  0.255E+00  0.180E+00  0.473E-01  0.278E-01
  -3.049  0.250E+00  0.175E+00  0.468E-01  0.277E-01
  -3.039  0.245E+00  0.171E+00  0.463E-01  0.276E-01
  -3.029  0.240E+00  0.166E+00  0.459E-01  0.275E-01
  -3.019  0.236E+00  0.163E+00  0.455E-01  0.274E-01
  -3.009  0.234E+00  0.161E+00  0.451E-01  0.273E-01
  -2.999  0.231E+00  0.159E+00  0.448E-01  0.272E-01
  -2.989  0.229E+00  0.157E+00  0.445E-01  0.271E-01
  -2.979  0.226E+00  0.155E+00  0.441E-01  0.271E-01
  -2.969  0.223E+00  0.152E+00  0.438E-01  0.270E-01
  -2.959  0.220E+00  0.150E+00  0.434E-01  0.269E-01
  -2.949  0.217E+00  0.148E+00  0.431E-01  0.268E-01
  -2.939  0.215E+00  0.145E+00  0.427E-01  0.267E-01
  -2.929  0.212E+00  0.143E+00  0.424E-01  0.266E-01
  -2.919  0.209E+00  0.140E+00  0.420E-01  0.266E-01
  -2.909  0.204E+00  0.138E+00  0.404E-01  0.256E-01
  -2.899  0.201E+00  0.135E+00  0.401E-01  0.256E-01
  -2.889  0.198E+00  0.133E+00  0.398E-01  0.255E-01
  -2.879  0.195E+00  0.130E+00  0.395E-01  0.254E-01
  -2.869  0.193E+00  0.128E+00  0.392E-01  0.254E-01
  -2.859  0.190E+00  0.126E+00  0.389E-01  0.253E-01
  -2.849  0.189E+00  0.125E+00  0.386E-01  0.252E-01
  -2.839  0.187E+00  0.124E+00  0.384E-01  0.252E-01
  -2.829  0.186E+00  0.123E+00  0.382E-01  0.251E-01
  -2.819  0.185E+00  0.122E+00  0.380E-01  0.250E-01
  -2.809  0.183E+00  0.121E+00  0.378E-01  0.250E-01
  -2.799  0.182E+00  0.120E+00  0.376E-01  0.249E-01
  -2.789  0.181E+00  0.119E+00  0.374E-01  0.249E-01
  -2.779  0.180E+00  0.118E+00  0.372E-01  0.248E-01
  -2.769  0.178E+00  0.117E+00  0.370E-01  0.247E-01
  -2.759  0.177E+00  0.116E+00  0.368E-01  0.247E-01
  -2.749  0.176E+00  0.115E+00  0.366E-01  0.246E-01
  -2.739  0.175E+00  0.114E+00  0.364E-01  0.245E-01
  -2.729  0.173E+00  0.113E+00  0.362E-01  0.245E-01
  -2.719  0.171E+00  0.111E+00  0.359E-01  0.244E-01
  -2.709  0.169E+00  0.109E+00  0.356E-01  0.243E-01
  -2.699  0.168E+00  0.108E+00  0.354E-01  0.242E-01
  -2.689  0.166E+00  0.106E+00  0.351E-01  0.241E-01
  -2.679  0.164E+00  0.105E+00  0.348E-01  0.241E-01
  -2.669  0.162E+00  0.103E+00  0.345E-01  0.240E-01
  -2.659  0.160E+00  0.102E+00  0.343E-01  0.239E-01
  -2.649  0.158E+00  0.100E+00  0.340E-01  0.238E-01
  -2.639  0.156E+00  0.985E-01  0.337E-01  0.237E-01
  -2.629  0.155E+00  0.974E-01  0.335E-01  0.237E-01
  -2.619  0.153E+00  0.964E-01  0.333E-01  0.236E-01
  -2.609  0.152E+00  0.953E-01  0.330E-01  0.235E-01
  -2.599  0.150E+00  0.943E-01  0.327E-01  0.233E-01
  -2.589  0.149E+00  0.932E-01  0.324E-01  0.232E-01
  -2.579  0.147E+00  0.921E-01  0.321E-01  0.231E-01
  -2.569  0.146E+00  0.911E-01  0.318E-01  0.229E-01
  -2.559  0.144E+00  0.900E-01  0.315E-01  0.228E-01
  -2.549  0.143E+00  0.890E-01  0.312E-01  0.226E-01
  -2.539  0.143E+00  0.890E-01  0.312E-01  0.229E-01
  -2.529  0.141E+00  0.877E-01  0.309E-01  0.227E-01
  -2.519  0.140E+00  0.864E-01  0.306E-01  0.226E-01
  -2.509  0.138E+00  0.851E-01  0.303E-01  0.224E-01
  -2.499  0.136E+00  0.838E-01  0.300E-01  0.222E-01
  -2.489  0.134E+00  0.825E-01  0.297E-01  0.220E-01
  -2.479  0.132E+00  0.812E-01  0.293E-01  0.218E-01
  -2.469  0.131E+00  0.800E-01  0.290E-01  0.216E-01
  -2.459  0.129E+00  0.787E-01  0.287E-01  0.214E-01
  -2.449  0.127E+00  0.775E-01  0.283E-01  0.212E-01
  -2.439  0.125E+00  0.762E-01  0.280E-01  0.211E-01
  -2.429  0.131E+00  0.776E-01  0.303E-01  0.235E-01
  -2.419  0.129E+00  0.761E-01  0.298E-01  0.232E-01
  -2.409  0.127E+00  0.747E-01  0.293E-01  0.228E-01
  -2.399  0.129E+00  0.769E-01  0.294E-01  0.226E-01
  -2.389  0.127E+00  0.759E-01  0.289E-01  0.222E-01
  -2.379  0.125E+00  0.750E-01  0.285E-01  0.219E-01
  -2.369  0.124E+00  0.741E-01  0.280E-01  0.215E-01
  -2.359  0.122E+00  0.730E-01  0.275E-01  0.211E-01
  -2.349  0.119E+00  0.717E-01  0.270E-01  0.207E-01
  -2.339  0.117E+00  0.703E-01  0.265E-01  0.203E-01
  -2.329  0.115E+00  0.690E-01  0.259E-01  0.198E-01
  -2.319  0.112E+00  0.677E-01  0.253E-01  0.194E-01
  -2.309  0.110E+00  0.664E-01  0.248E-01  0.189E-01
  -2.299  0.108E+00  0.650E-01  0.242E-01  0.185E-01
  -2.289  0.105E+00  0.637E-01  0.236E-01  0.180E-01
  -2.279  0.103E+00  0.624E-01  0.230E-01  0.175E-01
  -2.269  0.101E+00  0.611E-01  0.224E-01  0.170E-01
  -2.259  0.981E-01  0.598E-01  0.218E-01  0.165E-01
  -2.249  0.956E-01  0.585E-01  0.212E-01  0.159E-01
  -2.239  0.932E-01  0.572E-01  0.205E-01  0.154E-01
  -2.229  0.907E-01  0.560E-01  0.199E-01  0.149E-01
  -2.219  0.882E-01  0.547E-01  0.192E-01  0.143E-01
  -2.209  0.857E-01  0.534E-01  0.186E-01  0.138E-01
  -2.199  0.832E-01  0.521E-01  0.179E-01  0.132E-01
  -2.189  0.807E-01  0.508E-01  0.172E-01  0.126E-01
  -2.179  0.781E-01  0.496E-01  0.165E-01  0.120E-01
  -2.169  0.755E-01  0.483E-01  0.158E-01  0.114E-01
  -2.159  0.729E-01  0.471E-01  0.151E-01  0.108E-01
  -2.149  0.703E-01  0.458E-01  0.144E-01  0.101E-01
  -2.139  0.677E-01  0.445E-01  0.137E-01  0.950E-02
  -2.129  0.644E-01  0.433E-01  0.126E-01  0.856E-02
  -2.119  0.629E-01  0.424E-01  0.122E-01  0.828E-02
  -2.109  0.614E-01  0.416E-01  0.118E-01  0.800E-02
  -2.099  0.599E-01  0.408E-01  0.113E-01  0.773E-02
  -2.089  0.584E-01  0.400E-01  0.110E-01  0.746E-02
  -2.079  0.625E-01  0.442E-01  0.110E-01  0.724E-02
  -2.069  0.673E-01  0.491E-01  0.112E-01  0.704E-02
  -2.059  0.708E-01  0.528E-01  0.112E-01  0.683E-02
  -2.049  0.770E-01  0.583E-01  0.117E-01  0.695E-02
  -2.039  0.864E-01  0.663E-01  0.126E-01  0.741E-02
  -2.029  0.873E-01  0.676E-01  0.124E-01  0.722E-02
  -2.019  0.882E-01  0.689E-01  0.123E-01  0.704E-02
  -2.009  0.893E-01  0.703E-01  0.121E-01  0.686E-02
  -1.999  0.903E-01  0.717E-01  0.119E-01  0.669E-02
  -1.989  0.914E-01  0.731E-01  0.118E-01  0.652E-02
  -1.979  0.918E-01  0.739E-01  0.116E-01  0.635E-02
  -1.969  0.922E-01  0.746E-01  0.114E-01  0.618E-02
  -1.959  0.927E-01  0.754E-01  0.112E-01  0.602E-02
  -1.949  0.932E-01  0.763E-01  0.110E-01  0.587E-02
  -1.939  0.937E-01  0.771E-01  0.109E-01  0.573E-02
  -1.929  0.943E-01  0.780E-01  0.107E-01  0.559E-02
  -1.919  0.949E-01  0.788E-01  0.106E-01  0.545E-02
  -1.909  0.956E-01  0.797E-01  0.105E-01  0.533E-02
  -1.899  0.962E-01  0.807E-01  0.104E-01  0.520E-02
  -1.889  0.970E-01  0.816E-01  0.103E-01  0.509E-02
  -1.879  0.977E-01  0.826E-01  0.102E-01  0.498E-02
  -1.869  0.983E-01  0.834E-01  0.101E-01  0.487E-02
  -1.859  0.989E-01  0.841E-01  0.999E-02  0.477E-02
  -1.849  0.994E-01  0.849E-01  0.991E-02  0.467E-02
  -1.839  0.100E+00  0.856E-01  0.984E-02  0.458E-02
  -1.829  0.101E+00  0.864E-01  0.977E-02  0.450E-02
  -1.819  0.101E+00  0.873E-01  0.972E-02  0.442E-02
  -1.809  0.102E+00  0.881E-01  0.968E-02  0.435E-02
  -1.799  0.103E+00  0.889E-01  0.965E-02  0.428E-02
  -1.789  0.987E-01  0.852E-01  0.931E-02  0.420E-02
  -1.779  0.976E-01  0.842E-01  0.917E-02  0.416E-02
  -1.769  0.136E+00  0.115E+00  0.136E-01  0.783E-02
  -1.759  0.130E+00  0.110E+00  0.125E-01  0.715E-02
  -1.749  0.123E+00  0.105E+00  0.114E-01  0.648E-02
  -1.739  0.117E+00  0.101E+00  0.104E-01  0.584E-02
  -1.729  0.111E+00  0.962E-01  0.953E-02  0.522E-02
  -1.719  0.105E+00  0.916E-01  0.874E-02  0.462E-02
  -1.709  0.988E-01  0.867E-01  0.802E-02  0.404E-02
  -1.699  0.926E-01  0.817E-01  0.738E-02  0.347E-02
  -1.689  0.862E-01  0.765E-01  0.682E-02  0.293E-02
  -1.679  0.798E-01  0.711E-01  0.633E-02  0.241E-02
  -1.669  0.733E-01  0.655E-01  0.591E-02  0.191E-02
  -1.659  0.709E-01  0.633E-01  0.580E-02  0.174E-02
  -1.649  0.736E-01  0.656E-01  0.598E-02  0.195E-02
  -1.639  0.763E-01  0.680E-01  0.617E-02  0.216E-02
  -1.629  0.790E-01  0.703E-01  0.637E-02  0.237E-02
  -1.619  0.816E-01  0.725E-01  0.656E-02  0.258E-02
  -1.609  0.841E-01  0.746E-01  0.676E-02  0.278E-02
  -1.599  0.865E-01  0.766E-01  0.695E-02  0.298E-02
  -1.589  0.889E-01  0.786E-01  0.714E-02  0.318E-02
  -1.579  0.913E-01  0.806E-01  0.735E-02  0.339E-02
  -1.569  0.940E-01  0.827E-01  0.760E-02  0.363E-02
  -1.559  0.966E-01  0.849E-01  0.785E-02  0.387E-02
  -1.549  0.991E-01  0.869E-01  0.810E-02  0.411E-02
  -1.539  0.102E+00  0.889E-01  0.836E-02  0.436E-02
  -1.529  0.104E+00  0.908E-01  0.861E-02  0.460E-02
  -1.519  0.106E+00  0.928E-01  0.887E-02  0.485E-02
  -1.509  0.109E+00  0.947E-01  0.914E-02  0.511E-02
  -1.499  0.111E+00  0.965E-01  0.940E-02  0.536E-02
  -1.489  0.114E+00  0.983E-01  0.967E-02  0.562E-02
  -1.479  0.116E+00  0.100E+00  0.994E-02  0.588E-02
  -1.469  0.118E+00  0.102E+00  0.102E-01  0.613E-02
  -1.459  0.120E+00  0.103E+00  0.105E-01  0.640E-02
  -1.449  0.176E+00  0.147E+00  0.162E-01  0.123E-01
  -1.439  0.172E+00  0.145E+00  0.158E-01  0.118E-01
  -1.429  0.169E+00  0.142E+00  0.154E-01  0.114E-01
  -1.419  0.166E+00  0.140E+00  0.150E-01  0.110E-01
  -1.409  0.163E+00  0.137E+00  0.145E-01  0.106E-01
  -1.399  0.159E+00  0.135E+00  0.141E-01  0.101E-01
  -1.389  0.156E+00  0.133E+00  0.137E-01  0.973E-02
  -1.379  0.153E+00  0.130E+00  0.133E-01  0.933E-02
  -1.369  0.150E+00  0.128E+00  0.129E-01  0.893E-02
  -1.359  0.147E+00  0.126E+00  0.125E-01  0.854E-02
  -1.349  0.144E+00  0.123E+00  0.121E-01  0.815E-02
  -1.339  0.141E+00  0.121E+00  0.118E-01  0.777E-02
  -1.329  0.137E+00  0.119E+00  0.114E-01  0.739E-02
  -1.319  0.134E+00  0.116E+00  0.110E-01  0.701E-02
  -1.309  0.131E+00  0.114E+00  0.106E-01  0.664E-02
  -1.299  0.128E+00  0.112E+00  0.102E-01  0.627E-02
  -1.289  0.179E+00  0.154E+00  0.145E-01  0.104E-01
  -1.279  0.279E+00  0.239E+00  0.233E-01  0.168E-01
  -1.269  0.939E-01  0.836E-01  0.708E-02  0.325E-02
  -1.259  0.930E-01  0.829E-01  0.696E-02  0.317E-02
  -1.249  0.921E-01  0.822E-01  0.685E-02  0.308E-02
  -1.239  0.910E-01  0.813E-01  0.673E-02  0.300E-02
  -1.229  0.899E-01  0.804E-01  0.661E-02  0.292E-02
  -1.219  0.889E-01  0.795E-01  0.650E-02  0.284E-02
  -1.209  0.879E-01  0.787E-01  0.639E-02  0.276E-02
  -1.199  0.869E-01  0.779E-01  0.628E-02  0.269E-02
  -1.189  0.859E-01  0.771E-01  0.618E-02  0.261E-02
  -1.179  0.849E-01  0.762E-01  0.607E-02  0.254E-02
  -1.169  0.839E-01  0.754E-01  0.601E-02  0.247E-02
  -1.159  0.831E-01  0.747E-01  0.599E-02  0.240E-02
  -1.149  0.823E-01  0.740E-01  0.598E-02  0.235E-02
  -1.139  0.815E-01  0.733E-01  0.596E-02  0.229E-02
  -1.129  0.808E-01  0.726E-01  0.594E-02  0.224E-02
  -1.119  0.801E-01  0.720E-01  0.592E-02  0.219E-02
  -1.109  0.795E-01  0.715E-01  0.589E-02  0.215E-02
  -1.099  0.789E-01  0.709E-01  0.587E-02  0.211E-02
  -1.089  0.783E-01  0.704E-01  0.585E-02  0.208E-02
  -1.079  0.779E-01  0.701E-01  0.583E-02  0.205E-02
  -1.069  0.780E-01  0.701E-01  0.584E-02  0.203E-02
  -1.059  0.781E-01  0.702E-01  0.585E-02  0.202E-02
  -1.049  0.782E-01  0.703E-01  0.586E-02  0.202E-02
  -1.039  0.784E-01  0.705E-01  0.586E-02  0.202E-02
  -1.029  0.786E-01  0.707E-01  0.587E-02  0.203E-02
  -1.019  0.880E-01  0.790E-01  0.651E-02  0.251E-02
  -1.009  0.148E+00  0.132E+00  0.106E-01  0.499E-02
  -0.999  0.203E+00  0.183E+00  0.144E-01  0.632E-02
  -0.989  0.742E-01  0.669E-01  0.550E-02  0.179E-02
  -0.979  0.743E-01  0.670E-01  0.549E-02  0.183E-02
  -0.969  0.744E-01  0.671E-01  0.547E-02  0.186E-02
  -0.959  0.746E-01  0.673E-01  0.544E-02  0.191E-02
  -0.949  0.749E-01  0.675E-01  0.542E-02  0.195E-02
  -0.939  0.751E-01  0.677E-01  0.539E-02  0.200E-02
  -0.929  0.755E-01  0.680E-01  0.536E-02  0.205E-02
  -0.919  0.821E-01  0.737E-01  0.582E-02  0.250E-02
  -0.909  0.809E-01  0.727E-01  0.575E-02  0.245E-02
  -0.899  0.798E-01  0.717E-01  0.567E-02  0.240E-02
  -0.889  0.787E-01  0.707E-01  0.560E-02  0.235E-02
  -0.879  0.776E-01  0.698E-01  0.552E-02  0.230E-02
  -0.869  0.765E-01  0.688E-01  0.544E-02  0.225E-02
  -0.859  0.754E-01  0.679E-01  0.536E-02  0.221E-02
  -0.849  0.744E-01  0.669E-01  0.528E-02  0.216E-02
  -0.839  0.733E-01  0.660E-01  0.520E-02  0.212E-02
  -0.829  0.723E-01  0.651E-01  0.512E-02  0.207E-02
  -0.819  0.713E-01  0.642E-01  0.503E-02  0.203E-02
  -0.809  0.702E-01  0.633E-01  0.495E-02  0.199E-02
  -0.799  0.692E-01  0.624E-01  0.486E-02  0.195E-02
  -0.789  0.673E-01  0.608E-01  0.469E-02  0.183E-02
  -0.779  0.662E-01  0.598E-01  0.460E-02  0.178E-02
  -0.769  0.652E-01  0.590E-01  0.453E-02  0.175E-02
  -0.759  0.652E-01  0.589E-01  0.454E-02  0.176E-02
  -0.749  0.651E-01  0.588E-01  0.454E-02  0.178E-02
  -0.739  0.651E-01  0.587E-01  0.454E-02  0.179E-02
  -0.729  0.650E-01  0.586E-01  0.454E-02  0.181E-02
  -0.719  0.649E-01  0.585E-01  0.454E-02  0.183E-02
  -0.709  0.648E-01  0.584E-01  0.455E-02  0.184E-02
  -0.699  0.647E-01  0.583E-01  0.455E-02  0.186E-02
  -0.689  0.646E-01  0.581E-01  0.456E-02  0.188E-02
  -0.679  0.668E-01  0.601E-01  0.471E-02  0.196E-02
  -0.669  0.721E-01  0.649E-01  0.506E-02  0.211E-02
  -0.659  0.786E-01  0.709E-01  0.551E-02  0.225E-02
  -0.649  0.844E-01  0.762E-01  0.591E-02  0.237E-02
  -0.639  0.906E-01  0.818E-01  0.636E-02  0.247E-02
  -0.629  0.976E-01  0.881E-01  0.686E-02  0.257E-02
  -0.619  0.104E+00  0.944E-01  0.737E-02  0.265E-02
  -0.609  0.709E-01  0.637E-01  0.514E-02  0.207E-02
  -0.599  0.707E-01  0.635E-01  0.515E-02  0.210E-02
  -0.589  0.705E-01  0.632E-01  0.515E-02  0.212E-02
  -0.579  0.703E-01  0.630E-01  0.516E-02  0.215E-02
  -0.569  0.701E-01  0.627E-01  0.517E-02  0.217E-02
  -0.559  0.699E-01  0.625E-01  0.518E-02  0.220E-02
  -0.549  0.696E-01  0.622E-01  0.519E-02  0.222E-02
  -0.539  0.694E-01  0.620E-01  0.520E-02  0.225E-02
  -0.529  0.692E-01  0.617E-01  0.523E-02  0.227E-02
  -0.519  0.695E-01  0.615E-01  0.567E-02  0.234E-02
  -0.509  0.702E-01  0.616E-01  0.608E-02  0.247E-02
  -0.499  0.711E-01  0.620E-01  0.649E-02  0.267E-02
  -0.489  0.132E+00  0.112E+00  0.134E-01  0.650E-02
  -0.479  0.106E+00  0.901E-01  0.111E-01  0.511E-02
  -0.469  0.759E-01  0.663E-01  0.655E-02  0.306E-02
  -0.459  0.764E-01  0.666E-01  0.663E-02  0.318E-02
  -0.449  0.770E-01  0.670E-01  0.672E-02  0.332E-02
  -0.439  0.775E-01  0.672E-01  0.681E-02  0.346E-02
  -0.429  0.779E-01  0.674E-01  0.689E-02  0.361E-02
  -0.419  0.773E-01  0.666E-01  0.694E-02  0.376E-02
  -0.409  0.767E-01  0.658E-01  0.699E-02  0.390E-02
  -0.399  0.763E-01  0.651E-01  0.705E-02  0.407E-02
  -0.389  0.760E-01  0.647E-01  0.712E-02  0.426E-02
  -0.379  0.758E-01  0.642E-01  0.719E-02  0.443E-02
  -0.369  0.756E-01  0.638E-01  0.724E-02  0.459E-02
  -0.359  0.754E-01  0.634E-01  0.728E-02  0.474E-02
  -0.349  0.752E-01  0.630E-01  0.732E-02  0.488E-02
  -0.339  0.750E-01  0.626E-01  0.734E-02  0.501E-02
  -0.329  0.746E-01  0.621E-01  0.734E-02  0.510E-02
  -0.319  0.742E-01  0.617E-01  0.735E-02  0.519E-02
  -0.309  0.739E-01  0.613E-01  0.735E-02  0.528E-02
  -0.299  0.736E-01  0.609E-01  0.734E-02  0.536E-02
  -0.289  0.734E-01  0.606E-01  0.734E-02  0.544E-02
  -0.279  0.731E-01  0.603E-01  0.734E-02  0.552E-02
  -0.269  0.740E-01  0.610E-01  0.741E-02  0.562E-02
  -0.259  0.756E-01  0.623E-01  0.753E-02  0.572E-02
  -0.249  0.771E-01  0.637E-01  0.765E-02  0.581E-02
  -0.239  0.787E-01  0.650E-01  0.777E-02  0.591E-02
  -0.229  0.802E-01  0.663E-01  0.789E-02  0.599E-02
  -0.219  0.815E-01  0.674E-01  0.803E-02  0.608E-02
  -0.209  0.102E+00  0.828E-01  0.112E-01  0.790E-02
  -0.199  0.101E+00  0.825E-01  0.111E-01  0.783E-02
  -0.189  0.101E+00  0.821E-01  0.110E-01  0.773E-02
  -0.179  0.994E-01  0.812E-01  0.107E-01  0.753E-02
  -0.169  0.819E-01  0.656E-01  0.905E-02  0.716E-02
  -0.159  0.839E-01  0.678E-01  0.902E-02  0.704E-02
  -0.149  0.818E-01  0.662E-01  0.865E-02  0.689E-02
  -0.139  0.811E-01  0.656E-01  0.859E-02  0.691E-02
  -0.129  0.807E-01  0.652E-01  0.858E-02  0.695E-02
  -0.119  0.803E-01  0.647E-01  0.856E-02  0.698E-02
  -0.109  0.798E-01  0.643E-01  0.854E-02  0.701E-02
  -0.099  0.794E-01  0.638E-01  0.852E-02  0.704E-02
  -0.089  0.790E-01  0.634E-01  0.850E-02  0.707E-02
  -0.079  0.785E-01  0.630E-01  0.849E-02  0.710E-02
  -0.069  0.781E-01  0.625E-01  0.847E-02  0.712E-02
  -0.059  0.777E-01  0.621E-01  0.845E-02  0.714E-02
  -0.049  0.772E-01  0.616E-01  0.843E-02  0.716E-02
  -0.039  0.769E-01  0.613E-01  0.841E-02  0.719E-02
  -0.029  0.768E-01  0.611E-01  0.840E-02  0.724E-02
  -0.019  0.766E-01  0.610E-01  0.839E-02  0.728E-02
  -0.009  0.765E-01  0.608E-01  0.837E-02  0.732E-02
   0.001  0.765E-01  0.607E-01  0.837E-02  0.738E-02
   0.011  0.765E-01  0.606E-01  0.842E-02  0.748E-02
   0.021  0.767E-01  0.606E-01  0.847E-02  0.759E-02
   0.031  0.768E-01  0.606E-01  0.852E-02  0.769E-02
   0.041  0.770E-01  0.606E-01  0.857E-02  0.779E-02
   0.051  0.772E-01  0.607E-01  0.862E-02  0.789E-02
   0.061  0.774E-01  0.608E-01  0.868E-02  0.799E-02
   0.071  0.777E-01  0.609E-01  0.873E-02  0.808E-02
   0.081  0.782E-01  0.611E-01  0.886E-02  0.824E-02
   0.091  0.791E-01  0.616E-01  0.904E-02  0.844E-02
   0.101  0.800E-01  0.622E-01  0.924E-02  0.863E-02
   0.111  0.803E-01  0.624E-01  0.928E-02  0.869E-02
   0.121  0.937E-01  0.721E-01  0.117E-01  0.988E-02
   0.131  0.926E-01  0.714E-01  0.115E-01  0.975E-02
   0.141  0.914E-01  0.706E-01  0.112E-01  0.962E-02
   0.151  0.838E-01  0.642E-01  0.102E-01  0.938E-02
   0.161  0.831E-01  0.638E-01  0.100E-01  0.928E-02
   0.171  0.820E-01  0.630E-01  0.983E-02  0.918E-02
   0.181  0.808E-01  0.621E-01  0.961E-02  0.908E-02
   0.191  0.795E-01  0.611E-01  0.939E-02  0.899E-02
   0.201  0.797E-01  0.613E-01  0.944E-02  0.901E-02
   0.211  0.803E-01  0.617E-01  0.956E-02  0.906E-02
   0.221  0.809E-01  0.621E-01  0.968E-02  0.910E-02
   0.231  0.815E-01  0.625E-01  0.981E-02  0.916E-02
   0.241  0.821E-01  0.629E-01  0.996E-02  0.925E-02
   0.251  0.828E-01  0.633E-01  0.101E-01  0.933E-02
   0.261  0.834E-01  0.637E-01  0.103E-01  0.941E-02
   0.271  0.843E-01  0.643E-01  0.104E-01  0.951E-02
   0.281  0.852E-01  0.650E-01  0.106E-01  0.962E-02
   0.291  0.862E-01  0.657E-01  0.107E-01  0.972E-02
   0.301  0.871E-01  0.664E-01  0.109E-01  0.982E-02
   0.311  0.880E-01  0.671E-01  0.110E-01  0.992E-02
   0.321  0.889E-01  0.677E-01  0.112E-01  0.100E-01
   0.331  0.902E-01  0.685E-01  0.114E-01  0.102E-01
   0.341  0.914E-01  0.693E-01  0.117E-01  0.104E-01
   0.351  0.115E+00  0.878E-01  0.157E-01  0.117E-01
   0.361  0.133E+00  0.101E+00  0.189E-01  0.130E-01
   0.371  0.149E+00  0.112E+00  0.223E-01  0.144E-01
   0.381  0.119E+00  0.897E-01  0.169E-01  0.126E-01
   0.391  0.120E+00  0.900E-01  0.175E-01  0.130E-01
   0.401  0.119E+00  0.886E-01  0.173E-01  0.131E-01
   0.411  0.117E+00  0.866E-01  0.170E-01  0.130E-01
   0.421  0.114E+00  0.844E-01  0.166E-01  0.129E-01
   0.431  0.111E+00  0.823E-01  0.163E-01  0.128E-01
   0.441  0.109E+00  0.803E-01  0.159E-01  0.126E-01
   0.451  0.107E+00  0.784E-01  0.156E-01  0.126E-01
   0.461  0.105E+00  0.767E-01  0.153E-01  0.125E-01
   0.471  0.102E+00  0.750E-01  0.150E-01  0.124E-01
   0.481  0.101E+00  0.738E-01  0.149E-01  0.124E-01
   0.491  0.100E+00  0.731E-01  0.149E-01  0.125E-01
   0.501  0.997E-01  0.723E-01  0.149E-01  0.125E-01
   0.511  0.990E-01  0.715E-01  0.149E-01  0.126E-01
   0.521  0.982E-01  0.707E-01  0.149E-01  0.126E-01
   0.531  0.977E-01  0.699E-01  0.150E-01  0.128E-01
   0.541  0.980E-01  0.693E-01  0.155E-01  0.132E-01
   0.551  0.983E-01  0.687E-01  0.160E-01  0.136E-01
   0.561  0.102E+00  0.697E-01  0.175E-01  0.146E-01
   0.571  0.106E+00  0.705E-01  0.195E-01  0.161E-01
   0.581  0.103E+00  0.686E-01  0.188E-01  0.157E-01
   0.591  0.100E+00  0.668E-01  0.181E-01  0.153E-01
   0.601  0.973E-01  0.651E-01  0.173E-01  0.148E-01
   0.611  0.946E-01  0.637E-01  0.165E-01  0.144E-01
   0.621  0.930E-01  0.625E-01  0.162E-01  0.143E-01
   0.631  0.956E-01  0.645E-01  0.165E-01  0.147E-01
   0.641  0.963E-01  0.641E-01  0.170E-01  0.152E-01
   0.651  0.116E+00  0.663E-01  0.269E-01  0.226E-01
   0.661  0.965E-01  0.624E-01  0.179E-01  0.161E-01
   0.671  0.817E-01  0.614E-01  0.102E-01  0.102E-01
   0.681  0.676E-01  0.611E-01  0.235E-02  0.411E-02
   0.691  0.654E-01  0.615E-01  0.898E-03  0.298E-02
   0.701  0.658E-01  0.619E-01  0.904E-03  0.298E-02
   0.711  0.663E-01  0.624E-01  0.910E-03  0.298E-02
   0.721  0.667E-01  0.628E-01  0.916E-03  0.298E-02
   0.731  0.672E-01  0.633E-01  0.923E-03  0.298E-02
   0.741  0.676E-01  0.637E-01  0.929E-03  0.298E-02
   0.751  0.680E-01  0.641E-01  0.936E-03  0.298E-02
   0.761  0.684E-01  0.645E-01  0.941E-03  0.297E-02
   0.771  0.688E-01  0.649E-01  0.947E-03  0.297E-02
   0.781  0.692E-01  0.653E-01  0.953E-03  0.297E-02
   0.791  0.696E-01  0.657E-01  0.960E-03  0.296E-02
   0.801  0.700E-01  0.660E-01  0.966E-03  0.296E-02
   0.811  0.703E-01  0.664E-01  0.972E-03  0.295E-02
   0.821  0.707E-01  0.668E-01  0.979E-03  0.295E-02
   0.831  0.711E-01  0.672E-01  0.986E-03  0.295E-02
   0.841  0.715E-01  0.676E-01  0.992E-03  0.294E-02
   0.851  0.719E-01  0.679E-01  0.999E-03  0.294E-02
   0.861  0.723E-01  0.683E-01  0.101E-02  0.293E-02
   0.871  0.726E-01  0.687E-01  0.101E-02  0.293E-02
   0.881  0.730E-01  0.691E-01  0.102E-02  0.292E-02
   0.891  0.734E-01  0.695E-01  0.103E-02  0.291E-02
   0.901  0.738E-01  0.699E-01  0.104E-02  0.291E-02
   0.911  0.746E-01  0.706E-01  0.105E-02  0.292E-02
   0.921  0.754E-01  0.714E-01  0.106E-02  0.293E-02
   0.931  0.760E-01  0.720E-01  0.107E-02  0.294E-02
   0.941  0.766E-01  0.726E-01  0.109E-02  0.294E-02
   0.951  0.772E-01  0.731E-01  0.110E-02  0.295E-02
   0.961  0.777E-01  0.737E-01  0.111E-02  0.295E-02
   0.971  0.783E-01  0.742E-01  0.112E-02  0.295E-02
   0.981  0.789E-01  0.748E-01  0.113E-02  0.296E-02
   0.991  0.794E-01  0.753E-01  0.115E-02  0.296E-02
   1.001  0.800E-01  0.759E-01  0.116E-02  0.297E-02
   1.011  0.806E-01  0.764E-01  0.117E-02  0.297E-02
   1.021  0.811E-01  0.770E-01  0.119E-02  0.297E-02
   1.031  0.817E-01  0.775E-01  0.120E-02  0.298E-02
   1.041  0.822E-01  0.780E-01  0.122E-02  0.298E-02
   1.051  0.828E-01  0.786E-01  0.123E-02  0.298E-02
   1.061  0.831E-01  0.789E-01  0.125E-02  0.298E-02
   1.071  0.834E-01  0.791E-01  0.126E-02  0.297E-02
   1.081  0.836E-01  0.794E-01  0.127E-02  0.297E-02
   1.091  0.839E-01  0.796E-01  0.128E-02  0.296E-02
   1.101  0.841E-01  0.799E-01  0.130E-02  0.296E-02
   1.111  0.844E-01  0.801E-01  0.131E-02  0.295E-02
   1.121  0.847E-01  0.804E-01  0.132E-02  0.295E-02
   1.131  0.851E-01  0.808E-01  0.134E-02  0.295E-02
   1.141  0.858E-01  0.814E-01  0.136E-02  0.297E-02
   1.151  0.861E-01  0.818E-01  0.137E-02  0.297E-02
   1.161  0.865E-01  0.821E-01  0.139E-02  0.296E-02
   1.171  0.868E-01  0.824E-01  0.140E-02  0.296E-02
   1.181  0.871E-01  0.827E-01  0.142E-02  0.296E-02
   1.191  0.874E-01  0.830E-01  0.143E-02  0.295E-02
   1.201  0.877E-01  0.833E-01  0.145E-02  0.295E-02
   1.211  0.880E-01  0.835E-01  0.147E-02  0.294E-02
   1.221  0.883E-01  0.838E-01  0.148E-02  0.294E-02
   1.231  0.886E-01  0.841E-01  0.150E-02  0.293E-02
   1.241  0.889E-01  0.844E-01  0.152E-02  0.293E-02
   1.251  0.891E-01  0.847E-01  0.153E-02  0.292E-02
   1.261  0.927E-01  0.881E-01  0.161E-02  0.301E-02
   1.271  0.933E-01  0.886E-01  0.163E-02  0.302E-02
   1.281  0.940E-01  0.893E-01  0.166E-02  0.302E-02
   1.291  0.948E-01  0.901E-01  0.169E-02  0.303E-02
   1.301  0.957E-01  0.909E-01  0.172E-02  0.303E-02
   1.311  0.965E-01  0.917E-01  0.175E-02  0.304E-02
   1.321  0.972E-01  0.924E-01  0.178E-02  0.304E-02
   1.331  0.980E-01  0.932E-01  0.181E-02  0.304E-02
   1.341  0.988E-01  0.939E-01  0.184E-02  0.305E-02
   1.351  0.996E-01  0.946E-01  0.188E-02  0.305E-02
   1.361  0.100E+00  0.954E-01  0.191E-02  0.305E-02
   1.371  0.101E+00  0.961E-01  0.194E-02  0.306E-02
   1.381  0.102E+00  0.968E-01  0.198E-02  0.306E-02
   1.391  0.103E+00  0.975E-01  0.201E-02  0.307E-02
   1.401  0.103E+00  0.982E-01  0.205E-02  0.307E-02
   1.411  0.104E+00  0.991E-01  0.209E-02  0.308E-02
   1.421  0.105E+00  0.100E+00  0.214E-02  0.309E-02
   1.431  0.106E+00  0.101E+00  0.218E-02  0.310E-02
   1.441  0.108E+00  0.102E+00  0.223E-02  0.311E-02
   1.451  0.109E+00  0.103E+00  0.228E-02  0.312E-02
   1.461  0.110E+00  0.104E+00  0.234E-02  0.313E-02
   1.471  0.111E+00  0.105E+00  0.239E-02  0.315E-02
   1.481  0.112E+00  0.106E+00  0.245E-02  0.316E-02
   1.491  0.113E+00  0.107E+00  0.250E-02  0.318E-02
   1.501  0.113E+00  0.108E+00  0.255E-02  0.319E-02
   1.511  0.114E+00  0.108E+00  0.260E-02  0.320E-02
   1.521  0.115E+00  0.109E+00  0.265E-02  0.321E-02
   1.531  0.116E+00  0.110E+00  0.271E-02  0.322E-02
   1.541  0.117E+00  0.111E+00  0.278E-02  0.325E-02
   1.551  0.118E+00  0.112E+00  0.284E-02  0.327E-02
   1.561  0.119E+00  0.113E+00  0.292E-02  0.330E-02
   1.571  0.121E+00  0.114E+00  0.299E-02  0.332E-02
   1.581  0.122E+00  0.116E+00  0.306E-02  0.335E-02
   1.591  0.123E+00  0.117E+00  0.313E-02  0.337E-02
   1.601  0.125E+00  0.118E+00  0.321E-02  0.340E-02
   1.611  0.126E+00  0.119E+00  0.329E-02  0.342E-02
   1.621  0.127E+00  0.120E+00  0.337E-02  0.345E-02
   1.631  0.128E+00  0.122E+00  0.344E-02  0.347E-02
   1.641  0.129E+00  0.122E+00  0.352E-02  0.349E-02
   1.651  0.130E+00  0.123E+00  0.359E-02  0.351E-02
   1.661  0.132E+00  0.125E+00  0.369E-02  0.354E-02
   1.671  0.134E+00  0.127E+00  0.382E-02  0.358E-02
   1.681  0.137E+00  0.129E+00  0.396E-02  0.363E-02
   1.691  0.139E+00  0.132E+00  0.410E-02  0.367E-02
   1.701  0.142E+00  0.134E+00  0.425E-02  0.373E-02
   1.711  0.144E+00  0.136E+00  0.440E-02  0.378E-02
   1.721  0.147E+00  0.138E+00  0.456E-02  0.384E-02
   1.731  0.149E+00  0.140E+00  0.473E-02  0.390E-02
   1.741  0.152E+00  0.143E+00  0.490E-02  0.396E-02
   1.751  0.156E+00  0.147E+00  0.516E-02  0.407E-02
   1.761  0.161E+00  0.152E+00  0.548E-02  0.420E-02
   1.771  0.167E+00  0.157E+00  0.581E-02  0.434E-02
   1.781  0.175E+00  0.164E+00  0.620E-02  0.464E-02
   1.791  0.181E+00  0.169E+00  0.656E-02  0.481E-02
   1.801  0.186E+00  0.174E+00  0.693E-02  0.498E-02
   1.811  0.192E+00  0.179E+00  0.731E-02  0.516E-02
   1.821  0.199E+00  0.186E+00  0.779E-02  0.539E-02
   1.831  0.206E+00  0.192E+00  0.828E-02  0.562E-02
   1.841  0.223E+00  0.208E+00  0.906E-02  0.599E-02
   1.851  0.234E+00  0.218E+00  0.969E-02  0.629E-02
   1.861  0.264E+00  0.245E+00  0.115E-01  0.713E-02
   1.871  0.294E+00  0.273E+00  0.135E-01  0.803E-02
   1.881  0.324E+00  0.300E+00  0.155E-01  0.899E-02
   1.891  0.750E+00  0.685E+00  0.434E-01  0.222E-01
   1.901  0.316E+00  0.292E+00  0.147E-01  0.868E-02
   1.911  0.539E+00  0.504E+00  0.223E-01  0.125E-01
   1.921  0.190E+00  0.179E+00  0.670E-02  0.474E-02
   1.931  0.147E+00  0.139E+00  0.439E-02  0.354E-02
   1.941  0.140E+00  0.133E+00  0.409E-02  0.336E-02
   1.951  0.132E+00  0.125E+00  0.380E-02  0.319E-02
   1.961  0.125E+00  0.118E+00  0.351E-02  0.303E-02
   1.971  0.117E+00  0.111E+00  0.322E-02  0.288E-02
   1.981  0.109E+00  0.103E+00  0.294E-02  0.275E-02
   1.991  0.100E+00  0.951E-01  0.266E-02  0.263E-02
   2.001  0.919E-01  0.870E-01  0.238E-02  0.252E-02
   2.011  0.113E+00  0.108E+00  0.306E-02  0.267E-02
   2.021  0.141E+00  0.134E+00  0.386E-02  0.275E-02
   2.031  0.170E+00  0.163E+00  0.462E-02  0.270E-02
   2.041  0.437E-01  0.406E-01  0.932E-03  0.218E-02
   2.051  0.439E-01  0.408E-01  0.942E-03  0.219E-02
   2.061  0.440E-01  0.409E-01  0.952E-03  0.219E-02
   2.071  0.442E-01  0.410E-01  0.962E-03  0.220E-02
   2.081  0.443E-01  0.411E-01  0.972E-03  0.221E-02
   2.091  0.445E-01  0.413E-01  0.982E-03  0.222E-02
   2.101  0.446E-01  0.414E-01  0.992E-03  0.222E-02
   2.111  0.447E-01  0.415E-01  0.100E-02  0.223E-02
   2.121  0.449E-01  0.416E-01  0.101E-02  0.224E-02
   2.131  0.450E-01  0.418E-01  0.102E-02  0.224E-02
   2.141  0.452E-01  0.419E-01  0.103E-02  0.225E-02
   2.151  0.453E-01  0.420E-01  0.104E-02  0.226E-02
   2.161  0.455E-01  0.421E-01  0.105E-02  0.227E-02
   2.171  0.456E-01  0.423E-01  0.106E-02  0.227E-02
   2.181  0.458E-01  0.424E-01  0.107E-02  0.228E-02
   2.191  0.459E-01  0.425E-01  0.108E-02  0.229E-02
   2.201  0.460E-01  0.427E-01  0.109E-02  0.229E-02
   2.211  0.462E-01  0.428E-01  0.110E-02  0.230E-02
   2.221  0.463E-01  0.429E-01  0.111E-02  0.231E-02
   2.231  0.465E-01  0.431E-01  0.112E-02  0.232E-02
   2.241  0.466E-01  0.432E-01  0.113E-02  0.232E-02
   2.251  0.468E-01  0.433E-01  0.114E-02  0.233E-02
   2.261  0.469E-01  0.434E-01  0.115E-02  0.234E-02
   2.271  0.471E-01  0.436E-01  0.116E-02  0.235E-02
   2.281  0.472E-01  0.437E-01  0.117E-02  0.235E-02
   2.291  0.474E-01  0.438E-01  0.118E-02  0.236E-02
   2.301  0.475E-01  0.440E-01  0.119E-02  0.237E-02
   2.311  0.477E-01  0.441E-01  0.120E-02  0.237E-02
   2.321  0.478E-01  0.442E-01  0.121E-02  0.238E-02
   2.331  0.528E-01  0.487E-01  0.137E-02  0.265E-02
   2.341  0.578E-01  0.533E-01  0.152E-02  0.292E-02
   2.351  0.623E-01  0.575E-01  0.168E-02  0.318E-02
   2.361  0.625E-01  0.575E-01  0.175E-02  0.324E-02
   2.371  0.626E-01  0.575E-01  0.182E-02  0.330E-02
   2.381  0.628E-01  0.575E-01  0.190E-02  0.337E-02
   2.391  0.629E-01  0.575E-01  0.197E-02  0.343E-02
   2.401  0.631E-01  0.576E-01  0.205E-02  0.349E-02
   2.411  0.632E-01  0.576E-01  0.212E-02  0.356E-02
   2.421  0.634E-01  0.576E-01  0.219E-02  0.362E-02
   2.431  0.636E-01  0.576E-01  0.227E-02  0.369E-02
   2.441  0.637E-01  0.576E-01  0.234E-02  0.375E-02
   2.451  0.639E-01  0.576E-01  0.242E-02  0.382E-02
   2.461  0.640E-01  0.576E-01  0.249E-02  0.388E-02
   2.471  0.642E-01  0.577E-01  0.256E-02  0.395E-02
   2.481  0.643E-01  0.577E-01  0.264E-02  0.401E-02
   2.491  0.645E-01  0.577E-01  0.271E-02  0.408E-02
   2.501  0.646E-01  0.577E-01  0.278E-02  0.414E-02
   2.511  0.648E-01  0.577E-01  0.286E-02  0.421E-02
   2.521  0.649E-01  0.577E-01  0.293E-02  0.428E-02
   2.531  0.651E-01  0.577E-01  0.300E-02  0.434E-02
   2.541  0.652E-01  0.577E-01  0.308E-02  0.441E-02
   2.551  0.654E-01  0.577E-01  0.315E-02  0.448E-02
   2.561  0.655E-01  0.577E-01  0.322E-02  0.454E-02
   2.571  0.657E-01  0.578E-01  0.329E-02  0.461E-02
   2.581  0.656E-01  0.576E-01  0.336E-02  0.467E-02
   2.591  0.655E-01  0.574E-01  0.343E-02  0.473E-02
   2.601  0.654E-01  0.572E-01  0.349E-02  0.478E-02
   2.611  0.654E-01  0.570E-01  0.356E-02  0.484E-02
   2.621  0.653E-01  0.568E-01  0.363E-02  0.490E-02
   2.631  0.652E-01  0.566E-01  0.369E-02  0.495E-02
   2.641  0.652E-01  0.564E-01  0.376E-02  0.501E-02
   2.651  0.651E-01  0.562E-01  0.383E-02  0.507E-02
   2.661  0.650E-01  0.560E-01  0.389E-02  0.513E-02
   2.671  0.649E-01  0.558E-01  0.396E-02  0.519E-02
   2.681  0.649E-01  0.556E-01  0.402E-02  0.524E-02
   2.691  0.648E-01  0.554E-01  0.409E-02  0.530E-02
   2.701  0.647E-01  0.552E-01  0.415E-02  0.536E-02
   2.711  0.646E-01  0.550E-01  0.422E-02  0.542E-02
   2.721  0.646E-01  0.548E-01  0.428E-02  0.548E-02
   2.731  0.981E-01  0.813E-01  0.761E-02  0.917E-02
   2.741  0.981E-01  0.810E-01  0.774E-02  0.940E-02
   2.751  0.982E-01  0.807E-01  0.788E-02  0.964E-02
   2.761  0.982E-01  0.804E-01  0.801E-02  0.987E-02
   2.771  0.983E-01  0.801E-01  0.814E-02  0.101E-01
   2.781  0.983E-01  0.797E-01  0.826E-02  0.103E-01
   2.791  0.984E-01  0.794E-01  0.839E-02  0.106E-01
   2.801  0.984E-01  0.791E-01  0.851E-02  0.108E-01
   2.811  0.984E-01  0.788E-01  0.863E-02  0.111E-01
   2.821  0.985E-01  0.784E-01  0.874E-02  0.113E-01
   2.831  0.985E-01  0.781E-01  0.886E-02  0.115E-01
   2.841  0.985E-01  0.777E-01  0.897E-02  0.118E-01
   2.851  0.985E-01  0.774E-01  0.908E-02  0.120E-01
   2.861  0.985E-01  0.771E-01  0.919E-02  0.123E-01
   2.871  0.985E-01  0.767E-01  0.929E-02  0.125E-01
   2.881  0.978E-01  0.757E-01  0.937E-02  0.127E-01
   2.891  0.965E-01  0.742E-01  0.942E-02  0.129E-01
   2.901  0.188E+00  0.149E+00  0.159E-01  0.234E-01
   2.911  0.329E+00  0.258E+00  0.294E-01  0.417E-01
   2.921  0.312E+00  0.235E+00  0.318E-01  0.457E-01
   2.931  0.361E+00  0.263E+00  0.400E-01  0.577E-01
   2.941  0.531E+00  0.340E+00  0.812E-01  0.110E+00
   2.951  0.206E+00  0.166E+00  0.140E-01  0.265E-01
   2.961  0.174E+00  0.141E+00  0.107E-01  0.218E-01
   2.971  0.142E+00  0.117E+00  0.806E-02  0.173E-01
   2.981  0.107E+00  0.893E-01  0.571E-02  0.123E-01
   2.991  0.994E-01  0.831E-01  0.502E-02  0.113E-01
   3.001  0.909E-01  0.763E-01  0.436E-02  0.102E-01
   3.011  0.818E-01  0.688E-01  0.374E-02  0.922E-02
   3.021  0.779E-01  0.656E-01  0.346E-02  0.887E-02
   3.031  0.760E-01  0.639E-01  0.330E-02  0.872E-02
   3.041  0.740E-01  0.623E-01  0.314E-02  0.857E-02
   3.051  0.720E-01  0.606E-01  0.299E-02  0.841E-02
   3.061  0.700E-01  0.590E-01  0.284E-02  0.824E-02
   3.071  0.681E-01  0.573E-01  0.270E-02  0.807E-02
   3.081  0.661E-01  0.557E-01  0.256E-02  0.789E-02
   3.091  0.642E-01  0.541E-01  0.242E-02  0.771E-02
   3.101  0.623E-01  0.524E-01  0.230E-02  0.751E-02
   3.111  0.603E-01  0.508E-01  0.217E-02  0.732E-02
   3.121  0.584E-01  0.492E-01  0.205E-02  0.711E-02
   3.131  0.565E-01  0.476E-01  0.194E-02  0.690E-02
   3.141  0.546E-01  0.460E-01  0.183E-02  0.669E-02
   3.151  0.527E-01  0.445E-01  0.173E-02  0.646E-02
   3.161  0.509E-01  0.430E-01  0.164E-02  0.625E-02
   3.171  0.504E-01  0.426E-01  0.158E-02  0.623E-02
   3.181  0.503E-01  0.425E-01  0.154E-02  0.628E-02
   3.191  0.502E-01  0.424E-01  0.150E-02  0.633E-02
   3.201  0.502E-01  0.423E-01  0.147E-02  0.638E-02
   3.211  0.502E-01  0.423E-01  0.144E-02  0.643E-02
   3.221  0.502E-01  0.423E-01  0.141E-02  0.649E-02
   3.231  0.503E-01  0.424E-01  0.139E-02  0.655E-02
   3.241  0.504E-01  0.424E-01  0.136E-02  0.661E-02
   3.251  0.505E-01  0.425E-01  0.135E-02  0.667E-02
   3.261  0.507E-01  0.426E-01  0.133E-02  0.673E-02
   3.271  0.509E-01  0.428E-01  0.132E-02  0.680E-02
   3.281  0.512E-01  0.430E-01  0.131E-02  0.687E-02
   3.291  0.423E-01  0.356E-01  0.105E-02  0.568E-02
   3.301  0.397E-01  0.333E-01  0.957E-03  0.544E-02
   3.311  0.372E-01  0.311E-01  0.865E-03  0.519E-02
   3.321  0.347E-01  0.290E-01  0.778E-03  0.494E-02
   3.331  0.322E-01  0.268E-01  0.695E-03  0.467E-02
   3.341  0.297E-01  0.247E-01  0.616E-03  0.439E-02
   3.351  0.272E-01  0.226E-01  0.542E-03  0.410E-02
   3.361  0.248E-01  0.205E-01  0.472E-03  0.380E-02
   3.371  0.224E-01  0.185E-01  0.407E-03  0.350E-02
   3.381  0.200E-01  0.164E-01  0.346E-03  0.318E-02
   3.391  0.176E-01  0.145E-01  0.289E-03  0.285E-02
   3.401  0.152E-01  0.125E-01  0.237E-03  0.252E-02
   3.411  0.129E-01  0.106E-01  0.189E-03  0.217E-02
   3.421  0.106E-01  0.866E-02  0.146E-03  0.182E-02
   3.431  0.834E-02  0.678E-02  0.107E-03  0.145E-02
   3.441  0.608E-02  0.493E-02  0.723E-04  0.108E-02
   3.451  0.385E-02  0.311E-02  0.421E-04  0.693E-03
   3.461  0.163E-02  0.132E-02  0.163E-04  0.300E-03
   3.471  0.000E+00  0.000E+00  0.000E+00  0.000E+00
