# E (eV)   ldos(E)   pdos(E)   
 -17.719  0.000E+00  0.000E+00
 -17.709  0.110E+00  0.110E+00
 -17.699  0.218E+00  0.218E+00
 -17.689  0.120E+00  0.120E+00
 -17.679  0.128E+00  0.128E+00
 -17.669  0.136E+00  0.136E+00
 -17.659  0.144E+00  0.144E+00
 -17.649  0.134E+00  0.134E+00
 -17.639  0.123E+00  0.123E+00
 -17.629  0.123E+00  0.123E+00
 -17.619  0.125E+00  0.125E+00
 -17.609  0.127E+00  0.127E+00
 -17.599  0.129E+00  0.129E+00
 -17.589  0.131E+00  0.131E+00
 -17.579  0.133E+00  0.133E+00
 -17.569  0.122E+00  0.122E+00
 -17.559  0.121E+00  0.121E+00
 -17.549  0.120E+00  0.120E+00
 -17.539  0.118E+00  0.118E+00
 -17.529  0.119E+00  0.119E+00
 -17.519  0.119E+00  0.119E+00
 -17.509  0.120E+00  0.120E+00
 -17.499  0.121E+00  0.121E+00
 -17.489  0.121E+00  0.121E+00
 -17.479  0.122E+00  0.122E+00
 -17.469  0.119E+00  0.119E+00
 -17.459  0.115E+00  0.115E+00
 -17.449  0.114E+00  0.114E+00
 -17.439  0.113E+00  0.113E+00
 -17.429  0.113E+00  0.113E+00
 -17.419  0.113E+00  0.113E+00
 -17.409  0.112E+00  0.112E+00
 -17.399  0.112E+00  0.112E+00
 -17.389  0.112E+00  0.112E+00
 -17.379  0.112E+00  0.112E+00
 -17.369  0.113E+00  0.113E+00
 -17.359  0.113E+00  0.113E+00
 -17.349  0.113E+00  0.113E+00
 -17.339  0.113E+00  0.113E+00
 -17.329  0.109E+00  0.109E+00
 -17.319  0.108E+00  0.108E+00
 -17.309  0.107E+00  0.107E+00
 -17.299  0.107E+00  0.107E+00
 -17.289  0.107E+00  0.107E+00
 -17.279  0.106E+00  0.106E+00
 -17.269  0.106E+00  0.106E+00
 -17.259  0.106E+00  0.106E+00
 -17.249  0.106E+00  0.106E+00
 -17.239  0.106E+00  0.106E+00
 -17.229  0.106E+00  0.106E+00
 -17.219  0.106E+00  0.106E+00
 -17.209  0.106E+00  0.106E+00
 -17.199  0.106E+00  0.106E+00
 -17.189  0.106E+00  0.106E+00
 -17.179  0.105E+00  0.105E+00
 -17.169  0.104E+00  0.104E+00
 -17.159  0.103E+00  0.103E+00
 -17.149  0.103E+00  0.103E+00
 -17.139  0.103E+00  0.103E+00
 -17.129  0.102E+00  0.102E+00
 -17.119  0.102E+00  0.102E+00
 -17.109  0.102E+00  0.102E+00
 -17.099  0.102E+00  0.102E+00
 -17.089  0.102E+00  0.102E+00
 -17.079  0.102E+00  0.102E+00
 -17.069  0.102E+00  0.102E+00
 -17.059  0.103E+00  0.103E+00
 -17.049  0.103E+00  0.103E+00
 -17.039  0.103E+00  0.103E+00
 -17.029  0.103E+00  0.103E+00
 -17.019  0.103E+00  0.103E+00
 -17.009  0.103E+00  0.103E+00
 -16.999  0.103E+00  0.103E+00
 -16.989  0.103E+00  0.103E+00
 -16.979  0.103E+00  0.103E+00
 -16.969  0.103E+00  0.103E+00
 -16.959  0.103E+00  0.103E+00
 -16.949  0.104E+00  0.104E+00
 -16.939  0.104E+00  0.104E+00
 -16.929  0.105E+00  0.105E+00
 -16.919  0.105E+00  0.105E+00
 -16.909  0.106E+00  0.106E+00
 -16.899  0.107E+00  0.107E+00
 -16.889  0.108E+00  0.108E+00
 -16.879  0.110E+00  0.110E+00
 -16.869  0.111E+00  0.111E+00
 -16.859  0.112E+00  0.112E+00
 -16.849  0.113E+00  0.113E+00
 -16.839  0.114E+00  0.114E+00
 -16.829  0.117E+00  0.117E+00
 -16.819  0.121E+00  0.121E+00
 -16.809  0.124E+00  0.124E+00
 -16.799  0.126E+00  0.126E+00
 -16.789  0.131E+00  0.131E+00
 -16.779  0.136E+00  0.136E+00
 -16.769  0.147E+00  0.147E+00
 -16.759  0.159E+00  0.159E+00
 -16.749  0.266E+00  0.266E+00
 -16.739  0.130E+00  0.130E+00
 -16.729  0.121E+00  0.121E+00
 -16.719  0.112E+00  0.112E+00
 -16.709  0.103E+00  0.103E+00
 -16.699  0.942E-01  0.942E-01
 -16.689  0.854E-01  0.854E-01
 -16.679  0.767E-01  0.767E-01
 -16.669  0.775E-01  0.775E-01
 -16.659  0.788E-01  0.788E-01
 -16.649  0.802E-01  0.802E-01
 -16.639  0.816E-01  0.816E-01
 -16.629  0.830E-01  0.830E-01
 -16.619  0.552E-01  0.552E-01
 -16.609  0.567E-01  0.567E-01
 -16.599  0.565E-01  0.565E-01
 -16.589  0.539E-01  0.539E-01
 -16.579  0.512E-01  0.512E-01
 -16.569  0.487E-01  0.487E-01
 -16.559  0.461E-01  0.461E-01
 -16.549  0.435E-01  0.435E-01
 -16.539  0.410E-01  0.410E-01
 -16.529  0.385E-01  0.385E-01
 -16.519  0.360E-01  0.360E-01
 -16.509  0.335E-01  0.335E-01
 -16.499  0.310E-01  0.310E-01
 -16.489  0.286E-01  0.286E-01
 -16.479  0.265E-01  0.265E-01
 -16.469  0.266E-01  0.266E-01
 -16.459  0.266E-01  0.266E-01
 -16.449  0.267E-01  0.267E-01
 -16.439  0.267E-01  0.267E-01
 -16.429  0.268E-01  0.268E-01
 -16.419  0.269E-01  0.269E-01
 -16.409  0.269E-01  0.269E-01
 -16.399  0.000E+00  0.000E+00
 -16.389  0.000E+00  0.000E+00
 -16.379  0.000E+00  0.000E+00
 -16.369  0.000E+00  0.000E+00
 -16.359  0.000E+00  0.000E+00
 -16.349  0.000E+00  0.000E+00
 -16.339  0.000E+00  0.000E+00
 -16.329  0.000E+00  0.000E+00
 -16.319  0.000E+00  0.000E+00
 -16.309  0.000E+00  0.000E+00
 -16.299  0.000E+00  0.000E+00
 -16.289  0.000E+00  0.000E+00
 -16.279  0.000E+00  0.000E+00
 -16.269  0.000E+00  0.000E+00
 -16.259  0.000E+00  0.000E+00
 -16.249  0.000E+00  0.000E+00
 -16.239  0.000E+00  0.000E+00
 -16.229  0.000E+00  0.000E+00
 -16.219  0.000E+00  0.000E+00
 -16.209  0.000E+00  0.000E+00
 -16.199  0.000E+00  0.000E+00
 -16.189  0.000E+00  0.000E+00
 -16.179  0.000E+00  0.000E+00
 -16.169  0.000E+00  0.000E+00
 -16.159  0.000E+00  0.000E+00
 -16.149  0.275E-01  0.275E-01
 -16.139  0.268E-01  0.268E-01
 -16.129  0.261E-01  0.261E-01
 -16.119  0.254E-01  0.254E-01
 -16.109  0.247E-01  0.247E-01
 -16.099  0.240E-01  0.240E-01
 -16.089  0.232E-01  0.232E-01
 -16.079  0.228E-01  0.228E-01
 -16.069  0.253E-01  0.253E-01
 -16.059  0.278E-01  0.278E-01
 -16.049  0.303E-01  0.303E-01
 -16.039  0.328E-01  0.328E-01
 -16.029  0.353E-01  0.353E-01
 -16.019  0.378E-01  0.378E-01
 -16.009  0.403E-01  0.403E-01
 -15.999  0.428E-01  0.428E-01
 -15.989  0.453E-01  0.453E-01
 -15.979  0.478E-01  0.478E-01
 -15.969  0.503E-01  0.503E-01
 -15.959  0.528E-01  0.528E-01
 -15.949  0.164E+00  0.164E+00
 -15.939  0.819E-01  0.819E-01
 -15.929  0.642E-01  0.642E-01
 -15.919  0.748E-01  0.748E-01
 -15.909  0.854E-01  0.854E-01
 -15.899  0.123E+00  0.123E+00
 -15.889  0.173E+00  0.173E+00
 -15.879  0.222E+00  0.222E+00
 -15.869  0.112E+00  0.112E+00
 -15.859  0.106E+00  0.106E+00
 -15.849  0.101E+00  0.101E+00
 -15.839  0.958E-01  0.958E-01
 -15.829  0.906E-01  0.906E-01
 -15.819  0.855E-01  0.855E-01
 -15.809  0.804E-01  0.804E-01
 -15.799  0.770E-01  0.770E-01
 -15.789  0.740E-01  0.740E-01
 -15.779  0.711E-01  0.711E-01
 -15.769  0.690E-01  0.690E-01
 -15.759  0.672E-01  0.672E-01
 -15.749  0.655E-01  0.655E-01
 -15.739  0.637E-01  0.637E-01
 -15.729  0.620E-01  0.620E-01
 -15.719  0.601E-01  0.601E-01
 -15.709  0.582E-01  0.582E-01
 -15.699  0.564E-01  0.564E-01
 -15.689  0.554E-01  0.554E-01
 -15.679  0.544E-01  0.544E-01
 -15.669  0.534E-01  0.534E-01
 -15.659  0.525E-01  0.525E-01
 -15.649  0.515E-01  0.515E-01
 -15.639  0.508E-01  0.508E-01
 -15.629  0.501E-01  0.501E-01
 -15.619  0.494E-01  0.494E-01
 -15.609  0.488E-01  0.488E-01
 -15.599  0.481E-01  0.481E-01
 -15.589  0.474E-01  0.474E-01
 -15.579  0.468E-01  0.468E-01
 -15.569  0.461E-01  0.461E-01
 -15.559  0.455E-01  0.455E-01
 -15.549  0.448E-01  0.448E-01
 -15.539  0.442E-01  0.442E-01
 -15.529  0.436E-01  0.436E-01
 -15.519  0.429E-01  0.429E-01
 -15.509  0.423E-01  0.423E-01
 -15.499  0.416E-01  0.416E-01
 -15.489  0.409E-01  0.409E-01
 -15.479  0.403E-01  0.403E-01
 -15.469  0.397E-01  0.397E-01
 -15.459  0.391E-01  0.391E-01
 -15.449  0.384E-01  0.384E-01
 -15.439  0.368E-01  0.368E-01
 -15.429  0.364E-01  0.364E-01
 -15.419  0.361E-01  0.361E-01
 -15.409  0.358E-01  0.358E-01
 -15.399  0.354E-01  0.354E-01
 -15.389  0.351E-01  0.351E-01
 -15.379  0.347E-01  0.347E-01
 -15.369  0.344E-01  0.344E-01
 -15.359  0.341E-01  0.341E-01
 -15.349  0.337E-01  0.337E-01
 -15.339  0.334E-01  0.334E-01
 -15.329  0.331E-01  0.331E-01
 -15.319  0.328E-01  0.328E-01
 -15.309  0.324E-01  0.324E-01
 -15.299  0.321E-01  0.321E-01
 -15.289  0.317E-01  0.317E-01
 -15.279  0.314E-01  0.314E-01
 -15.269  0.311E-01  0.311E-01
 -15.259  0.307E-01  0.307E-01
 -15.249  0.304E-01  0.304E-01
 -15.239  0.300E-01  0.300E-01
 -15.229  0.297E-01  0.297E-01
 -15.219  0.294E-01  0.294E-01
 -15.209  0.291E-01  0.291E-01
 -15.199  0.287E-01  0.287E-01
 -15.189  0.284E-01  0.284E-01
 -15.179  0.280E-01  0.280E-01
 -15.169  0.275E-01  0.275E-01
 -15.159  0.270E-01  0.270E-01
 -15.149  0.265E-01  0.265E-01
 -15.139  0.260E-01  0.260E-01
 -15.129  0.255E-01  0.255E-01
 -15.119  0.252E-01  0.252E-01
 -15.109  0.250E-01  0.250E-01
 -15.099  0.248E-01  0.248E-01
 -15.089  0.246E-01  0.246E-01
 -15.079  0.244E-01  0.244E-01
 -15.069  0.242E-01  0.242E-01
 -15.059  0.240E-01  0.240E-01
 -15.049  0.238E-01  0.238E-01
 -15.039  0.235E-01  0.235E-01
 -15.029  0.233E-01  0.233E-01
 -15.019  0.231E-01  0.231E-01
 -15.009  0.229E-01  0.229E-01
 -14.999  0.227E-01  0.227E-01
 -14.989  0.225E-01  0.225E-01
 -14.979  0.223E-01  0.223E-01
 -14.969  0.221E-01  0.221E-01
 -14.959  0.219E-01  0.219E-01
 -14.949  0.217E-01  0.217E-01
 -14.939  0.216E-01  0.216E-01
 -14.929  0.213E-01  0.213E-01
 -14.919  0.211E-01  0.211E-01
 -14.909  0.208E-01  0.208E-01
 -14.899  0.206E-01  0.206E-01
 -14.889  0.203E-01  0.203E-01
 -14.879  0.201E-01  0.201E-01
 -14.869  0.198E-01  0.198E-01
 -14.859  0.196E-01  0.196E-01
 -14.849  0.193E-01  0.193E-01
 -14.839  0.191E-01  0.191E-01
 -14.829  0.188E-01  0.188E-01
 -14.819  0.186E-01  0.186E-01
 -14.809  0.178E-01  0.178E-01
 -14.799  0.176E-01  0.176E-01
 -14.789  0.175E-01  0.175E-01
 -14.779  0.173E-01  0.173E-01
 -14.769  0.172E-01  0.172E-01
 -14.759  0.171E-01  0.171E-01
 -14.749  0.169E-01  0.169E-01
 -14.739  0.168E-01  0.168E-01
 -14.729  0.167E-01  0.167E-01
 -14.719  0.165E-01  0.165E-01
 -14.709  0.164E-01  0.164E-01
 -14.699  0.163E-01  0.163E-01
 -14.689  0.161E-01  0.161E-01
 -14.679  0.159E-01  0.159E-01
 -14.669  0.158E-01  0.158E-01
 -14.659  0.156E-01  0.156E-01
 -14.649  0.155E-01  0.155E-01
 -14.639  0.153E-01  0.153E-01
 -14.629  0.152E-01  0.152E-01
 -14.619  0.151E-01  0.151E-01
 -14.609  0.149E-01  0.149E-01
 -14.599  0.148E-01  0.148E-01
 -14.589  0.146E-01  0.146E-01
 -14.579  0.145E-01  0.145E-01
 -14.569  0.143E-01  0.143E-01
 -14.559  0.142E-01  0.142E-01
 -14.549  0.140E-01  0.140E-01
 -14.539  0.139E-01  0.139E-01
 -14.529  0.138E-01  0.138E-01
 -14.519  0.136E-01  0.136E-01
 -14.509  0.133E-01  0.133E-01
 -14.499  0.131E-01  0.131E-01
 -14.489  0.128E-01  0.128E-01
 -14.479  0.126E-01  0.126E-01
 -14.469  0.123E-01  0.123E-01
 -14.459  0.121E-01  0.121E-01
 -14.449  0.118E-01  0.118E-01
 -14.439  0.117E-01  0.117E-01
 -14.429  0.116E-01  0.116E-01
 -14.419  0.115E-01  0.115E-01
 -14.409  0.114E-01  0.114E-01
 -14.399  0.113E-01  0.113E-01
 -14.389  0.112E-01  0.112E-01
 -14.379  0.111E-01  0.111E-01
 -14.369  0.110E-01  0.110E-01
 -14.359  0.109E-01  0.109E-01
 -14.349  0.108E-01  0.108E-01
 -14.339  0.107E-01  0.107E-01
 -14.329  0.106E-01  0.106E-01
 -14.319  0.106E-01  0.106E-01
 -14.309  0.105E-01  0.105E-01
 -14.299  0.104E-01  0.104E-01
 -14.289  0.103E-01  0.103E-01
 -14.279  0.102E-01  0.102E-01
 -14.269  0.101E-01  0.101E-01
 -14.259  0.996E-02  0.996E-02
 -14.249  0.984E-02  0.984E-02
 -14.239  0.972E-02  0.972E-02
 -14.229  0.959E-02  0.959E-02
 -14.219  0.947E-02  0.947E-02
 -14.209  0.935E-02  0.935E-02
 -14.199  0.924E-02  0.924E-02
 -14.189  0.912E-02  0.912E-02
 -14.179  0.900E-02  0.900E-02
 -14.169  0.888E-02  0.888E-02
 -14.159  0.877E-02  0.877E-02
 -14.149  0.571E-01  0.571E-01
 -14.139  0.611E-01  0.611E-01
 -14.129  0.651E-01  0.651E-01
 -14.119  0.690E-01  0.690E-01
 -14.109  0.729E-01  0.729E-01
 -14.099  0.763E-01  0.763E-01
 -14.089  0.802E-01  0.802E-01
 -14.079  0.800E-01  0.800E-01
 -14.069  0.778E-01  0.778E-01
 -14.059  0.756E-01  0.756E-01
 -14.049  0.734E-01  0.734E-01
 -14.039  0.683E-01  0.683E-01
 -14.029  0.692E-01  0.692E-01
 -14.019  0.700E-01  0.700E-01
 -14.009  0.709E-01  0.709E-01
 -13.999  0.717E-01  0.717E-01
 -13.989  0.726E-01  0.726E-01
 -13.979  0.734E-01  0.734E-01
 -13.969  0.742E-01  0.742E-01
 -13.959  0.750E-01  0.750E-01
 -13.949  0.759E-01  0.759E-01
 -13.939  0.767E-01  0.767E-01
 -13.929  0.775E-01  0.775E-01
 -13.919  0.783E-01  0.783E-01
 -13.909  0.793E-01  0.793E-01
 -13.899  0.755E-01  0.755E-01
 -13.889  0.753E-01  0.753E-01
 -13.879  0.750E-01  0.750E-01
 -13.869  0.748E-01  0.748E-01
 -13.859  0.746E-01  0.746E-01
 -13.849  0.743E-01  0.743E-01
 -13.839  0.743E-01  0.743E-01
 -13.829  0.745E-01  0.745E-01
 -13.819  0.747E-01  0.747E-01
 -13.809  0.749E-01  0.749E-01
 -13.799  0.751E-01  0.751E-01
 -13.789  0.753E-01  0.753E-01
 -13.779  0.755E-01  0.755E-01
 -13.769  0.757E-01  0.757E-01
 -13.759  0.758E-01  0.758E-01
 -13.749  0.760E-01  0.760E-01
 -13.739  0.762E-01  0.762E-01
 -13.729  0.763E-01  0.763E-01
 -13.719  0.765E-01  0.765E-01
 -13.709  0.781E-01  0.781E-01
 -13.699  0.786E-01  0.786E-01
 -13.689  0.790E-01  0.790E-01
 -13.679  0.795E-01  0.795E-01
 -13.669  0.800E-01  0.800E-01
 -13.659  0.802E-01  0.802E-01
 -13.649  0.803E-01  0.803E-01
 -13.639  0.804E-01  0.804E-01
 -13.629  0.807E-01  0.807E-01
 -13.619  0.810E-01  0.810E-01
 -13.609  0.813E-01  0.813E-01
 -13.599  0.816E-01  0.816E-01
 -13.589  0.819E-01  0.819E-01
 -13.579  0.822E-01  0.822E-01
 -13.569  0.825E-01  0.825E-01
 -13.559  0.827E-01  0.827E-01
 -13.549  0.830E-01  0.830E-01
 -13.539  0.832E-01  0.832E-01
 -13.529  0.836E-01  0.836E-01
 -13.519  0.844E-01  0.844E-01
 -13.509  0.852E-01  0.852E-01
 -13.499  0.859E-01  0.859E-01
 -13.489  0.867E-01  0.867E-01
 -13.479  0.874E-01  0.874E-01
 -13.469  0.882E-01  0.882E-01
 -13.459  0.889E-01  0.889E-01
 -13.449  0.894E-01  0.894E-01
 -13.439  0.898E-01  0.898E-01
 -13.429  0.902E-01  0.902E-01
 -13.419  0.906E-01  0.906E-01
 -13.409  0.910E-01  0.910E-01
 -13.399  0.914E-01  0.914E-01
 -13.389  0.101E+00  0.101E+00
 -13.379  0.107E+00  0.107E+00
 -13.369  0.112E+00  0.112E+00
 -13.359  0.117E+00  0.117E+00
 -13.349  0.121E+00  0.121E+00
 -13.339  0.124E+00  0.124E+00
 -13.329  0.127E+00  0.127E+00
 -13.319  0.130E+00  0.130E+00
 -13.309  0.133E+00  0.133E+00
 -13.299  0.138E+00  0.138E+00
 -13.289  0.142E+00  0.142E+00
 -13.279  0.144E+00  0.144E+00
 -13.269  0.147E+00  0.147E+00
 -13.259  0.149E+00  0.149E+00
 -13.249  0.149E+00  0.149E+00
 -13.239  0.127E+00  0.127E+00
 -13.229  0.117E+00  0.117E+00
 -13.219  0.111E+00  0.111E+00
 -13.209  0.105E+00  0.105E+00
 -13.199  0.993E-01  0.993E-01
 -13.189  0.952E-01  0.952E-01
 -13.179  0.918E-01  0.918E-01
 -13.169  0.885E-01  0.885E-01
 -13.159  0.853E-01  0.853E-01
 -13.149  0.820E-01  0.820E-01
 -13.139  0.788E-01  0.788E-01
 -13.129  0.757E-01  0.757E-01
 -13.119  0.741E-01  0.741E-01
 -13.109  0.732E-01  0.732E-01
 -13.099  0.722E-01  0.722E-01
 -13.089  0.712E-01  0.712E-01
 -13.079  0.703E-01  0.703E-01
 -13.069  0.693E-01  0.693E-01
 -13.059  0.682E-01  0.682E-01
 -13.049  0.672E-01  0.672E-01
 -13.039  0.652E-01  0.652E-01
 -13.029  0.626E-01  0.626E-01
 -13.019  0.602E-01  0.602E-01
 -13.009  0.577E-01  0.577E-01
 -12.999  0.553E-01  0.553E-01
 -12.989  0.529E-01  0.529E-01
 -12.979  0.506E-01  0.506E-01
 -12.969  0.483E-01  0.483E-01
 -12.959  0.460E-01  0.460E-01
 -12.949  0.607E-01  0.607E-01
 -12.939  0.579E-01  0.579E-01
 -12.929  0.551E-01  0.551E-01
 -12.919  0.523E-01  0.523E-01
 -12.909  0.496E-01  0.496E-01
 -12.899  0.469E-01  0.469E-01
 -12.889  0.443E-01  0.443E-01
 -12.879  0.417E-01  0.417E-01
 -12.869  0.391E-01  0.391E-01
 -12.859  0.366E-01  0.366E-01
 -12.849  0.528E-01  0.528E-01
 -12.839  0.493E-01  0.493E-01
 -12.829  0.452E-01  0.452E-01
 -12.819  0.411E-01  0.411E-01
 -12.809  0.371E-01  0.371E-01
 -12.799  0.332E-01  0.332E-01
 -12.789  0.293E-01  0.293E-01
 -12.779  0.410E-01  0.410E-01
 -12.769  0.157E-01  0.157E-01
 -12.759  0.532E-04  0.532E-04
 -12.749  0.198E-03  0.198E-03
 -12.739  0.339E-03  0.339E-03
 -12.729  0.476E-03  0.476E-03
 -12.719  0.610E-03  0.610E-03
 -12.709  0.740E-03  0.740E-03
 -12.699  0.867E-03  0.867E-03
 -12.689  0.990E-03  0.990E-03
 -12.679  0.111E-02  0.111E-02
 -12.669  0.123E-02  0.123E-02
 -12.659  0.134E-02  0.134E-02
 -12.649  0.145E-02  0.145E-02
 -12.639  0.155E-02  0.155E-02
 -12.629  0.165E-02  0.165E-02
 -12.619  0.175E-02  0.175E-02
 -12.609  0.185E-02  0.185E-02
 -12.599  0.194E-02  0.194E-02
 -12.589  0.203E-02  0.203E-02
 -12.579  0.211E-02  0.211E-02
 -12.569  0.219E-02  0.219E-02
 -12.559  0.227E-02  0.227E-02
 -12.549  0.234E-02  0.234E-02
 -12.539  0.241E-02  0.241E-02
 -12.529  0.248E-02  0.248E-02
 -12.519  0.254E-02  0.254E-02
 -12.509  0.260E-02  0.260E-02
 -12.499  0.265E-02  0.265E-02
 -12.489  0.271E-02  0.271E-02
 -12.479  0.276E-02  0.276E-02
 -12.469  0.280E-02  0.280E-02
 -12.459  0.284E-02  0.284E-02
 -12.449  0.288E-02  0.288E-02
 -12.439  0.291E-02  0.291E-02
 -12.429  0.294E-02  0.294E-02
 -12.419  0.344E-02  0.344E-02
 -12.409  0.351E-02  0.351E-02
 -12.399  0.357E-02  0.357E-02
 -12.389  0.363E-02  0.363E-02
 -12.379  0.369E-02  0.369E-02
 -12.369  0.375E-02  0.375E-02
 -12.359  0.381E-02  0.381E-02
 -12.349  0.387E-02  0.387E-02
 -12.339  0.393E-02  0.393E-02
 -12.329  0.399E-02  0.399E-02
 -12.319  0.405E-02  0.405E-02
 -12.309  0.411E-02  0.411E-02
 -12.299  0.417E-02  0.417E-02
 -12.289  0.423E-02  0.423E-02
 -12.279  0.429E-02  0.429E-02
 -12.269  0.435E-02  0.435E-02
 -12.259  0.441E-02  0.441E-02
 -12.249  0.447E-02  0.447E-02
 -12.239  0.453E-02  0.453E-02
 -12.229  0.459E-02  0.459E-02
 -12.219  0.465E-02  0.465E-02
 -12.209  0.471E-02  0.471E-02
 -12.199  0.477E-02  0.477E-02
 -12.189  0.952E-02  0.952E-02
 -12.179  0.164E-01  0.164E-01
 -12.169  0.215E-01  0.215E-01
 -12.159  0.239E-01  0.239E-01
 -12.149  0.263E-01  0.263E-01
 -12.139  0.287E-01  0.287E-01
 -12.129  0.311E-01  0.311E-01
 -12.119  0.337E-01  0.337E-01
 -12.109  0.363E-01  0.363E-01
 -12.099  0.383E-01  0.383E-01
 -12.089  0.402E-01  0.402E-01
 -12.079  0.420E-01  0.420E-01
 -12.069  0.438E-01  0.438E-01
 -12.059  0.457E-01  0.457E-01
 -12.049  0.475E-01  0.475E-01
 -12.039  0.494E-01  0.494E-01
 -12.029  0.512E-01  0.512E-01
 -12.019  0.530E-01  0.530E-01
 -12.009  0.549E-01  0.549E-01
 -11.999  0.567E-01  0.567E-01
 -11.989  0.531E-01  0.531E-01
 -11.979  0.531E-01  0.531E-01
 -11.969  0.530E-01  0.530E-01
 -11.959  0.530E-01  0.530E-01
 -11.949  0.537E-01  0.537E-01
 -11.939  0.545E-01  0.545E-01
 -11.929  0.553E-01  0.553E-01
 -11.919  0.561E-01  0.561E-01
 -11.909  0.569E-01  0.569E-01
 -11.899  0.582E-01  0.582E-01
 -11.889  0.639E-01  0.639E-01
 -11.879  0.693E-01  0.693E-01
 -11.869  0.725E-01  0.725E-01
 -11.859  0.724E-01  0.724E-01
 -11.849  0.722E-01  0.722E-01
 -11.839  0.720E-01  0.720E-01
 -11.829  0.707E-01  0.707E-01
 -11.819  0.684E-01  0.684E-01
 -11.809  0.662E-01  0.662E-01
 -11.799  0.640E-01  0.640E-01
 -11.789  0.617E-01  0.617E-01
 -11.779  0.584E-01  0.584E-01
 -11.769  0.550E-01  0.550E-01
 -11.759  0.517E-01  0.517E-01
 -11.749  0.484E-01  0.484E-01
 -11.739  0.451E-01  0.451E-01
 -11.729  0.419E-01  0.419E-01
 -11.719  0.415E-01  0.415E-01
 -11.709  0.412E-01  0.412E-01
 -11.699  0.408E-01  0.408E-01
 -11.689  0.405E-01  0.405E-01
 -11.679  0.401E-01  0.401E-01
 -11.669  0.397E-01  0.397E-01
 -11.659  0.394E-01  0.394E-01
 -11.649  0.390E-01  0.390E-01
 -11.639  0.387E-01  0.387E-01
 -11.629  0.383E-01  0.383E-01
 -11.619  0.380E-01  0.380E-01
 -11.609  0.376E-01  0.376E-01
 -11.599  0.372E-01  0.372E-01
 -11.589  0.369E-01  0.369E-01
 -11.579  0.361E-01  0.361E-01
 -11.569  0.352E-01  0.352E-01
 -11.559  0.346E-01  0.346E-01
 -11.549  0.341E-01  0.341E-01
 -11.539  0.338E-01  0.338E-01
 -11.529  0.335E-01  0.335E-01
 -11.519  0.332E-01  0.332E-01
 -11.509  0.330E-01  0.330E-01
 -11.499  0.328E-01  0.328E-01
 -11.489  0.326E-01  0.326E-01
 -11.479  0.324E-01  0.324E-01
 -11.469  0.322E-01  0.322E-01
 -11.459  0.320E-01  0.320E-01
 -11.449  0.319E-01  0.319E-01
 -11.439  0.319E-01  0.319E-01
 -11.429  0.319E-01  0.319E-01
 -11.419  0.320E-01  0.320E-01
 -11.409  0.267E-01  0.267E-01
 -11.399  0.264E-01  0.264E-01
 -11.389  0.261E-01  0.261E-01
 -11.379  0.258E-01  0.258E-01
 -11.369  0.255E-01  0.255E-01
 -11.359  0.253E-01  0.253E-01
 -11.349  0.250E-01  0.250E-01
 -11.339  0.247E-01  0.247E-01
 -11.329  0.244E-01  0.244E-01
 -11.319  0.241E-01  0.241E-01
 -11.309  0.238E-01  0.238E-01
 -11.299  0.236E-01  0.236E-01
 -11.289  0.233E-01  0.233E-01
 -11.279  0.230E-01  0.230E-01
 -11.269  0.227E-01  0.227E-01
 -11.259  0.224E-01  0.224E-01
 -11.249  0.222E-01  0.222E-01
 -11.239  0.219E-01  0.219E-01
 -11.229  0.216E-01  0.216E-01
 -11.219  0.213E-01  0.213E-01
 -11.209  0.211E-01  0.211E-01
 -11.199  0.208E-01  0.208E-01
 -11.189  0.205E-01  0.205E-01
 -11.179  0.203E-01  0.203E-01
 -11.169  0.200E-01  0.200E-01
 -11.159  0.197E-01  0.197E-01
 -11.149  0.195E-01  0.195E-01
 -11.139  0.192E-01  0.192E-01
 -11.129  0.189E-01  0.189E-01
 -11.119  0.187E-01  0.187E-01
 -11.109  0.184E-01  0.184E-01
 -11.099  0.181E-01  0.181E-01
 -11.089  0.185E-01  0.185E-01
 -11.079  0.202E-01  0.202E-01
 -11.069  0.220E-01  0.220E-01
 -11.059  0.240E-01  0.240E-01
 -11.049  0.262E-01  0.262E-01
 -11.039  0.284E-01  0.284E-01
 -11.029  0.307E-01  0.307E-01
 -11.019  0.157E-01  0.157E-01
 -11.009  0.155E-01  0.155E-01
 -10.999  0.153E-01  0.153E-01
 -10.989  0.151E-01  0.151E-01
 -10.979  0.149E-01  0.149E-01
 -10.969  0.147E-01  0.147E-01
 -10.959  0.145E-01  0.145E-01
 -10.949  0.143E-01  0.143E-01
 -10.939  0.141E-01  0.141E-01
 -10.929  0.139E-01  0.139E-01
 -10.919  0.137E-01  0.137E-01
 -10.909  0.135E-01  0.135E-01
 -10.899  0.133E-01  0.133E-01
 -10.889  0.131E-01  0.131E-01
 -10.879  0.180E-01  0.180E-01
 -10.869  0.256E-01  0.256E-01
 -10.859  0.333E-01  0.333E-01
 -10.849  0.410E-01  0.410E-01
 -10.839  0.488E-01  0.488E-01
 -10.829  0.566E-01  0.566E-01
 -10.819  0.612E-01  0.612E-01
 -10.809  0.700E-01  0.700E-01
 -10.799  0.789E-01  0.789E-01
 -10.789  0.878E-01  0.878E-01
 -10.779  0.967E-01  0.967E-01
 -10.769  0.106E+00  0.106E+00
 -10.759  0.965E-01  0.965E-01
 -10.749  0.880E-01  0.880E-01
 -10.739  0.844E-01  0.844E-01
 -10.729  0.208E+00  0.208E+00
 -10.719  0.742E-01  0.742E-01
 -10.709  0.693E-01  0.693E-01
 -10.699  0.646E-01  0.646E-01
 -10.689  0.592E-01  0.592E-01
 -10.679  0.534E-01  0.534E-01
 -10.669  0.479E-01  0.479E-01
 -10.659  0.463E-01  0.463E-01
 -10.649  0.512E-01  0.512E-01
 -10.639  0.492E-01  0.492E-01
 -10.629  0.473E-01  0.473E-01
 -10.619  0.455E-01  0.455E-01
 -10.609  0.436E-01  0.436E-01
 -10.599  0.416E-01  0.416E-01
 -10.589  0.396E-01  0.396E-01
 -10.579  0.376E-01  0.376E-01
 -10.569  0.287E-01  0.287E-01
 -10.559  0.338E-01  0.338E-01
 -10.549  0.388E-01  0.388E-01
 -10.539  0.437E-01  0.437E-01
 -10.529  0.486E-01  0.486E-01
 -10.519  0.535E-01  0.535E-01
 -10.509  0.401E-01  0.401E-01
 -10.499  0.404E-01  0.404E-01
 -10.489  0.406E-01  0.406E-01
 -10.479  0.409E-01  0.409E-01
 -10.469  0.412E-01  0.412E-01
 -10.459  0.414E-01  0.414E-01
 -10.449  0.417E-01  0.417E-01
 -10.439  0.419E-01  0.419E-01
 -10.429  0.422E-01  0.422E-01
 -10.419  0.424E-01  0.424E-01
 -10.409  0.427E-01  0.427E-01
 -10.399  0.429E-01  0.429E-01
 -10.389  0.578E-01  0.578E-01
 -10.379  0.540E-01  0.540E-01
 -10.369  0.498E-01  0.498E-01
 -10.359  0.456E-01  0.456E-01
 -10.349  0.414E-01  0.414E-01
 -10.339  0.375E-01  0.375E-01
 -10.329  0.364E-01  0.364E-01
 -10.319  0.362E-01  0.362E-01
 -10.309  0.360E-01  0.360E-01
 -10.299  0.358E-01  0.358E-01
 -10.289  0.357E-01  0.357E-01
 -10.279  0.358E-01  0.358E-01
 -10.269  0.358E-01  0.358E-01
 -10.259  0.358E-01  0.358E-01
 -10.249  0.358E-01  0.358E-01
 -10.239  0.358E-01  0.358E-01
 -10.229  0.358E-01  0.358E-01
 -10.219  0.358E-01  0.358E-01
 -10.209  0.358E-01  0.358E-01
 -10.199  0.358E-01  0.358E-01
 -10.189  0.358E-01  0.358E-01
 -10.179  0.358E-01  0.358E-01
 -10.169  0.337E-01  0.337E-01
 -10.159  0.338E-01  0.338E-01
 -10.149  0.340E-01  0.340E-01
 -10.139  0.322E-01  0.322E-01
 -10.129  0.319E-01  0.319E-01
 -10.119  0.317E-01  0.317E-01
 -10.109  0.314E-01  0.314E-01
 -10.099  0.311E-01  0.311E-01
 -10.089  0.309E-01  0.309E-01
 -10.079  0.308E-01  0.308E-01
 -10.069  0.308E-01  0.308E-01
 -10.059  0.308E-01  0.308E-01
 -10.049  0.309E-01  0.309E-01
 -10.039  0.309E-01  0.309E-01
 -10.029  0.310E-01  0.310E-01
 -10.019  0.310E-01  0.310E-01
 -10.009  0.310E-01  0.310E-01
  -9.999  0.310E-01  0.310E-01
  -9.989  0.311E-01  0.311E-01
  -9.979  0.311E-01  0.311E-01
  -9.969  0.311E-01  0.311E-01
  -9.959  0.311E-01  0.311E-01
  -9.949  0.376E-01  0.376E-01
  -9.939  0.372E-01  0.372E-01
  -9.929  0.367E-01  0.367E-01
  -9.919  0.363E-01  0.363E-01
  -9.909  0.360E-01  0.360E-01
  -9.899  0.356E-01  0.356E-01
  -9.889  0.353E-01  0.353E-01
  -9.879  0.349E-01  0.349E-01
  -9.869  0.346E-01  0.346E-01
  -9.859  0.342E-01  0.342E-01
  -9.849  0.338E-01  0.338E-01
  -9.839  0.335E-01  0.335E-01
  -9.829  0.319E-01  0.319E-01
  -9.819  0.314E-01  0.314E-01
  -9.809  0.309E-01  0.309E-01
  -9.799  0.304E-01  0.304E-01
  -9.789  0.300E-01  0.300E-01
  -9.779  0.295E-01  0.295E-01
  -9.769  0.290E-01  0.290E-01
  -9.759  0.286E-01  0.286E-01
  -9.749  0.283E-01  0.283E-01
  -9.739  0.280E-01  0.280E-01
  -9.729  0.276E-01  0.276E-01
  -9.719  0.273E-01  0.273E-01
  -9.709  0.270E-01  0.270E-01
  -9.699  0.266E-01  0.266E-01
  -9.689  0.263E-01  0.263E-01
  -9.679  0.262E-01  0.262E-01
  -9.669  0.261E-01  0.261E-01
  -9.659  0.260E-01  0.260E-01
  -9.649  0.259E-01  0.259E-01
  -9.639  0.258E-01  0.258E-01
  -9.629  0.257E-01  0.257E-01
  -9.619  0.255E-01  0.255E-01
  -9.609  0.254E-01  0.254E-01
  -9.599  0.253E-01  0.253E-01
  -9.589  0.252E-01  0.252E-01
  -9.579  0.251E-01  0.251E-01
  -9.569  0.249E-01  0.249E-01
  -9.559  0.248E-01  0.248E-01
  -9.549  0.247E-01  0.247E-01
  -9.539  0.246E-01  0.246E-01
  -9.529  0.245E-01  0.245E-01
  -9.519  0.228E-01  0.228E-01
  -9.509  0.228E-01  0.228E-01
  -9.499  0.227E-01  0.227E-01
  -9.489  0.227E-01  0.227E-01
  -9.479  0.225E-01  0.225E-01
  -9.469  0.220E-01  0.220E-01
  -9.459  0.220E-01  0.220E-01
  -9.449  0.219E-01  0.219E-01
  -9.439  0.218E-01  0.218E-01
  -9.429  0.217E-01  0.217E-01
  -9.419  0.215E-01  0.215E-01
  -9.409  0.214E-01  0.214E-01
  -9.399  0.213E-01  0.213E-01
  -9.389  0.211E-01  0.211E-01
  -9.379  0.209E-01  0.209E-01
  -9.369  0.206E-01  0.206E-01
  -9.359  0.203E-01  0.203E-01
  -9.349  0.201E-01  0.201E-01
  -9.339  0.198E-01  0.198E-01
  -9.329  0.196E-01  0.196E-01
  -9.319  0.193E-01  0.193E-01
  -9.309  0.191E-01  0.191E-01
  -9.299  0.188E-01  0.188E-01
  -9.289  0.185E-01  0.185E-01
  -9.279  0.183E-01  0.183E-01
  -9.269  0.180E-01  0.180E-01
  -9.259  0.178E-01  0.178E-01
  -9.249  0.176E-01  0.176E-01
  -9.239  0.173E-01  0.173E-01
  -9.229  0.171E-01  0.171E-01
  -9.219  0.168E-01  0.168E-01
  -9.209  0.167E-01  0.167E-01
  -9.199  0.165E-01  0.165E-01
  -9.189  0.164E-01  0.164E-01
  -9.179  0.166E-01  0.166E-01
  -9.169  0.172E-01  0.172E-01
  -9.159  0.177E-01  0.177E-01
  -9.149  0.183E-01  0.183E-01
  -9.139  0.188E-01  0.188E-01
  -9.129  0.194E-01  0.194E-01
  -9.119  0.200E-01  0.200E-01
  -9.109  0.207E-01  0.207E-01
  -9.099  0.214E-01  0.214E-01
  -9.089  0.221E-01  0.221E-01
  -9.079  0.228E-01  0.228E-01
  -9.069  0.234E-01  0.234E-01
  -9.059  0.243E-01  0.243E-01
  -9.049  0.219E-01  0.219E-01
  -9.039  0.217E-01  0.217E-01
  -9.029  0.214E-01  0.214E-01
  -9.019  0.212E-01  0.212E-01
  -9.009  0.210E-01  0.210E-01
  -8.999  0.207E-01  0.207E-01
  -8.989  0.205E-01  0.205E-01
  -8.979  0.203E-01  0.203E-01
  -8.969  0.201E-01  0.201E-01
  -8.959  0.249E-01  0.249E-01
  -8.949  0.246E-01  0.246E-01
  -8.939  0.244E-01  0.244E-01
  -8.929  0.241E-01  0.241E-01
  -8.919  0.239E-01  0.239E-01
  -8.909  0.236E-01  0.236E-01
  -8.899  0.234E-01  0.234E-01
  -8.889  0.232E-01  0.232E-01
  -8.879  0.229E-01  0.229E-01
  -8.869  0.229E-01  0.229E-01
  -8.859  0.230E-01  0.230E-01
  -8.849  0.232E-01  0.232E-01
  -8.839  0.233E-01  0.233E-01
  -8.829  0.234E-01  0.234E-01
  -8.819  0.235E-01  0.235E-01
  -8.809  0.237E-01  0.237E-01
  -8.799  0.238E-01  0.238E-01
  -8.789  0.249E-01  0.249E-01
  -8.779  0.251E-01  0.251E-01
  -8.769  0.254E-01  0.254E-01
  -8.759  0.256E-01  0.256E-01
  -8.749  0.258E-01  0.258E-01
  -8.739  0.260E-01  0.260E-01
  -8.729  0.262E-01  0.262E-01
  -8.719  0.264E-01  0.264E-01
  -8.709  0.264E-01  0.264E-01
  -8.699  0.264E-01  0.264E-01
  -8.689  0.264E-01  0.264E-01
  -8.679  0.263E-01  0.263E-01
  -8.669  0.262E-01  0.262E-01
  -8.659  0.260E-01  0.260E-01
  -8.649  0.258E-01  0.258E-01
  -8.639  0.268E-01  0.268E-01
  -8.629  0.267E-01  0.267E-01
  -8.619  0.267E-01  0.267E-01
  -8.609  0.266E-01  0.266E-01
  -8.599  0.265E-01  0.265E-01
  -8.589  0.265E-01  0.265E-01
  -8.579  0.252E-01  0.252E-01
  -8.569  0.252E-01  0.252E-01
  -8.559  0.250E-01  0.250E-01
  -8.549  0.277E-01  0.277E-01
  -8.539  0.283E-01  0.283E-01
  -8.529  0.287E-01  0.287E-01
  -8.519  0.292E-01  0.292E-01
  -8.509  0.295E-01  0.295E-01
  -8.499  0.293E-01  0.293E-01
  -8.489  0.299E-01  0.299E-01
  -8.479  0.315E-01  0.315E-01
  -8.469  0.337E-01  0.337E-01
  -8.459  0.364E-01  0.364E-01
  -8.449  0.395E-01  0.395E-01
  -8.439  0.431E-01  0.431E-01
  -8.429  0.341E-01  0.341E-01
  -8.419  0.263E-01  0.263E-01
  -8.409  0.199E-01  0.199E-01
  -8.399  0.167E-01  0.167E-01
  -8.389  0.147E-01  0.147E-01
  -8.379  0.144E-01  0.144E-01
  -8.369  0.144E-01  0.144E-01
  -8.359  0.144E-01  0.144E-01
  -8.349  0.143E-01  0.143E-01
  -8.339  0.143E-01  0.143E-01
  -8.329  0.142E-01  0.142E-01
  -8.319  0.142E-01  0.142E-01
  -8.309  0.142E-01  0.142E-01
  -8.299  0.141E-01  0.141E-01
  -8.289  0.141E-01  0.141E-01
  -8.279  0.145E-01  0.145E-01
  -8.269  0.146E-01  0.146E-01
  -8.259  0.147E-01  0.147E-01
  -8.249  0.171E-01  0.171E-01
  -8.239  0.181E-01  0.181E-01
  -8.229  0.191E-01  0.191E-01
  -8.219  0.200E-01  0.200E-01
  -8.209  0.209E-01  0.209E-01
  -8.199  0.218E-01  0.218E-01
  -8.189  0.298E-01  0.298E-01
  -8.179  0.316E-01  0.316E-01
  -8.169  0.306E-01  0.306E-01
  -8.159  0.293E-01  0.293E-01
  -8.149  0.274E-01  0.274E-01
  -8.139  0.252E-01  0.252E-01
  -8.129  0.253E-01  0.253E-01
  -8.119  0.254E-01  0.254E-01
  -8.109  0.262E-01  0.262E-01
  -8.099  0.278E-01  0.278E-01
  -8.089  0.294E-01  0.294E-01
  -8.079  0.300E-01  0.300E-01
  -8.069  0.302E-01  0.302E-01
  -8.059  0.301E-01  0.301E-01
  -8.049  0.302E-01  0.302E-01
  -8.039  0.304E-01  0.304E-01
  -8.029  0.306E-01  0.306E-01
  -8.019  0.308E-01  0.308E-01
  -8.009  0.263E-01  0.263E-01
  -7.999  0.249E-01  0.249E-01
  -7.989  0.235E-01  0.235E-01
  -7.979  0.220E-01  0.220E-01
  -7.969  0.206E-01  0.206E-01
  -7.959  0.192E-01  0.192E-01
  -7.949  0.184E-01  0.184E-01
  -7.939  0.177E-01  0.177E-01
  -7.929  0.170E-01  0.170E-01
  -7.919  0.163E-01  0.163E-01
  -7.909  0.156E-01  0.156E-01
  -7.899  0.177E-01  0.177E-01
  -7.889  0.180E-01  0.180E-01
  -7.879  0.182E-01  0.182E-01
  -7.869  0.184E-01  0.184E-01
  -7.859  0.170E-01  0.170E-01
  -7.849  0.152E-01  0.152E-01
  -7.839  0.134E-01  0.134E-01
  -7.829  0.117E-01  0.117E-01
  -7.819  0.942E-02  0.942E-02
  -7.809  0.519E-02  0.519E-02
  -7.799  0.207E-02  0.207E-02
  -7.789  0.208E-02  0.208E-02
  -7.779  0.210E-02  0.210E-02
  -7.769  0.215E-02  0.215E-02
  -7.759  0.219E-02  0.219E-02
  -7.749  0.222E-02  0.222E-02
  -7.739  0.225E-02  0.225E-02
  -7.729  0.228E-02  0.228E-02
  -7.719  0.229E-02  0.229E-02
  -7.709  0.230E-02  0.230E-02
  -7.699  0.230E-02  0.230E-02
  -7.689  0.231E-02  0.231E-02
  -7.679  0.231E-02  0.231E-02
  -7.669  0.231E-02  0.231E-02
  -7.659  0.230E-02  0.230E-02
  -7.649  0.230E-02  0.230E-02
  -7.639  0.230E-02  0.230E-02
  -7.629  0.229E-02  0.229E-02
  -7.619  0.228E-02  0.228E-02
  -7.609  0.227E-02  0.227E-02
  -7.599  0.226E-02  0.226E-02
  -7.589  0.225E-02  0.225E-02
  -7.579  0.224E-02  0.224E-02
  -7.569  0.223E-02  0.223E-02
  -7.559  0.221E-02  0.221E-02
  -7.549  0.219E-02  0.219E-02
  -7.539  0.217E-02  0.217E-02
  -7.529  0.215E-02  0.215E-02
  -7.519  0.213E-02  0.213E-02
  -7.509  0.211E-02  0.211E-02
  -7.499  0.209E-02  0.209E-02
  -7.489  0.206E-02  0.206E-02
  -7.479  0.204E-02  0.204E-02
  -7.469  0.201E-02  0.201E-02
  -7.459  0.198E-02  0.198E-02
  -7.449  0.227E-02  0.227E-02
  -7.439  0.233E-02  0.233E-02
  -7.429  0.238E-02  0.238E-02
  -7.419  0.243E-02  0.243E-02
  -7.409  0.247E-02  0.247E-02
  -7.399  0.251E-02  0.251E-02
  -7.389  0.255E-02  0.255E-02
  -7.379  0.258E-02  0.258E-02
  -7.369  0.260E-02  0.260E-02
  -7.359  0.261E-02  0.261E-02
  -7.349  0.262E-02  0.262E-02
  -7.339  0.262E-02  0.262E-02
  -7.329  0.262E-02  0.262E-02
  -7.319  0.262E-02  0.262E-02
  -7.309  0.261E-02  0.261E-02
  -7.299  0.260E-02  0.260E-02
  -7.289  0.259E-02  0.259E-02
  -7.279  0.258E-02  0.258E-02
  -7.269  0.256E-02  0.256E-02
  -7.259  0.254E-02  0.254E-02
  -7.249  0.460E-02  0.460E-02
  -7.239  0.826E-02  0.826E-02
  -7.229  0.123E-01  0.123E-01
  -7.219  0.162E-01  0.162E-01
  -7.209  0.203E-01  0.203E-01
  -7.199  0.206E-01  0.206E-01
  -7.189  0.228E-01  0.228E-01
  -7.179  0.274E-01  0.274E-01
  -7.169  0.306E-01  0.306E-01
  -7.159  0.341E-01  0.341E-01
  -7.149  0.378E-01  0.378E-01
  -7.139  0.387E-01  0.387E-01
  -7.129  0.412E-01  0.412E-01
  -7.119  0.411E-01  0.411E-01
  -7.109  0.373E-01  0.373E-01
  -7.099  0.392E-01  0.392E-01
  -7.089  0.417E-01  0.417E-01
  -7.079  0.443E-01  0.443E-01
  -7.069  0.468E-01  0.468E-01
  -7.059  0.654E-01  0.654E-01
  -7.049  0.300E-01  0.300E-01
  -7.039  0.284E-01  0.284E-01
  -7.029  0.266E-01  0.266E-01
  -7.019  0.248E-01  0.248E-01
  -7.009  0.230E-01  0.230E-01
  -6.999  0.211E-01  0.211E-01
  -6.989  0.192E-01  0.192E-01
  -6.979  0.199E-01  0.199E-01
  -6.969  0.213E-01  0.213E-01
  -6.959  0.226E-01  0.226E-01
  -6.949  0.238E-01  0.238E-01
  -6.939  0.132E-01  0.132E-01
  -6.929  0.127E-01  0.127E-01
  -6.919  0.123E-01  0.123E-01
  -6.909  0.118E-01  0.118E-01
  -6.899  0.114E-01  0.114E-01
  -6.889  0.109E-01  0.109E-01
  -6.879  0.105E-01  0.105E-01
  -6.869  0.999E-02  0.999E-02
  -6.859  0.954E-02  0.954E-02
  -6.849  0.909E-02  0.909E-02
  -6.839  0.863E-02  0.863E-02
  -6.829  0.818E-02  0.818E-02
  -6.819  0.773E-02  0.773E-02
  -6.809  0.728E-02  0.728E-02
  -6.799  0.683E-02  0.683E-02
  -6.789  0.638E-02  0.638E-02
  -6.779  0.593E-02  0.593E-02
  -6.769  0.578E-02  0.578E-02
  -6.759  0.597E-02  0.597E-02
  -6.749  0.616E-02  0.616E-02
  -6.739  0.634E-02  0.634E-02
  -6.729  0.653E-02  0.653E-02
  -6.719  0.670E-02  0.670E-02
  -6.709  0.688E-02  0.688E-02
  -6.699  0.705E-02  0.705E-02
  -6.689  0.000E+00  0.000E+00
  -6.679  0.000E+00  0.000E+00
  -6.669  0.000E+00  0.000E+00
  -6.659  0.000E+00  0.000E+00
  -6.649  0.000E+00  0.000E+00
  -6.639  0.000E+00  0.000E+00
  -6.629  0.000E+00  0.000E+00
  -6.619  0.000E+00  0.000E+00
  -6.609  0.000E+00  0.000E+00
  -6.599  0.000E+00  0.000E+00
  -6.589  0.000E+00  0.000E+00
  -6.579  0.000E+00  0.000E+00
  -6.569  0.000E+00  0.000E+00
  -6.559  0.000E+00  0.000E+00
  -6.549  0.000E+00  0.000E+00
  -6.539  0.000E+00  0.000E+00
  -6.529  0.000E+00  0.000E+00
  -6.519  0.000E+00  0.000E+00
  -6.509  0.000E+00  0.000E+00
  -6.499  0.000E+00  0.000E+00
  -6.489  0.000E+00  0.000E+00
  -6.479  0.000E+00  0.000E+00
  -6.469  0.000E+00  0.000E+00
  -6.459  0.000E+00  0.000E+00
  -6.449  0.000E+00  0.000E+00
  -6.439  0.000E+00  0.000E+00
  -6.429  0.000E+00  0.000E+00
  -6.419  0.000E+00  0.000E+00
  -6.409  0.000E+00  0.000E+00
  -6.399  0.418E-03  0.418E-03
  -6.389  0.139E-01  0.139E-01
  -6.379  0.126E-01  0.126E-01
  -6.369  0.114E-01  0.114E-01
  -6.359  0.103E-01  0.103E-01
  -6.349  0.925E-02  0.925E-02
  -6.339  0.970E-02  0.970E-02
  -6.329  0.219E-01  0.219E-01
  -6.319  0.145E-01  0.145E-01
  -6.309  0.165E-01  0.165E-01
  -6.299  0.185E-01  0.185E-01
  -6.289  0.205E-01  0.205E-01
  -6.279  0.225E-01  0.225E-01
  -6.269  0.246E-01  0.246E-01
  -6.259  0.267E-01  0.267E-01
  -6.249  0.289E-01  0.289E-01
  -6.239  0.180E-01  0.180E-01
  -6.229  0.175E-01  0.175E-01
  -6.219  0.169E-01  0.169E-01
  -6.209  0.164E-01  0.164E-01
  -6.199  0.158E-01  0.158E-01
  -6.189  0.153E-01  0.153E-01
  -6.179  0.148E-01  0.148E-01
  -6.169  0.143E-01  0.143E-01
  -6.159  0.138E-01  0.138E-01
  -6.149  0.133E-01  0.133E-01
  -6.139  0.122E-01  0.122E-01
  -6.129  0.120E-01  0.120E-01
  -6.119  0.118E-01  0.118E-01
  -6.109  0.117E-01  0.117E-01
  -6.099  0.117E-01  0.117E-01
  -6.089  0.116E-01  0.116E-01
  -6.079  0.115E-01  0.115E-01
  -6.069  0.114E-01  0.114E-01
  -6.059  0.114E-01  0.114E-01
  -6.049  0.113E-01  0.113E-01
  -6.039  0.112E-01  0.112E-01
  -6.029  0.111E-01  0.111E-01
  -6.019  0.110E-01  0.110E-01
  -6.009  0.110E-01  0.110E-01
  -5.999  0.109E-01  0.109E-01
  -5.989  0.108E-01  0.108E-01
  -5.979  0.107E-01  0.107E-01
  -5.969  0.106E-01  0.106E-01
  -5.959  0.105E-01  0.105E-01
  -5.949  0.104E-01  0.104E-01
  -5.939  0.104E-01  0.104E-01
  -5.929  0.103E-01  0.103E-01
  -5.919  0.102E-01  0.102E-01
  -5.909  0.101E-01  0.101E-01
  -5.899  0.100E-01  0.100E-01
  -5.889  0.992E-02  0.992E-02
  -5.879  0.980E-02  0.980E-02
  -5.869  0.968E-02  0.968E-02
  -5.859  0.956E-02  0.956E-02
  -5.849  0.943E-02  0.943E-02
  -5.839  0.931E-02  0.931E-02
  -5.829  0.919E-02  0.919E-02
  -5.819  0.906E-02  0.906E-02
  -5.809  0.894E-02  0.894E-02
  -5.799  0.889E-02  0.889E-02
  -5.789  0.887E-02  0.887E-02
  -5.779  0.884E-02  0.884E-02
  -5.769  0.881E-02  0.881E-02
  -5.759  0.879E-02  0.879E-02
  -5.749  0.876E-02  0.876E-02
  -5.739  0.873E-02  0.873E-02
  -5.729  0.870E-02  0.870E-02
  -5.719  0.867E-02  0.867E-02
  -5.709  0.865E-02  0.865E-02
  -5.699  0.862E-02  0.862E-02
  -5.689  0.859E-02  0.859E-02
  -5.679  0.855E-02  0.855E-02
  -5.669  0.852E-02  0.852E-02
  -5.659  0.849E-02  0.849E-02
  -5.649  0.845E-02  0.845E-02
  -5.639  0.842E-02  0.842E-02
  -5.629  0.838E-02  0.838E-02
  -5.619  0.835E-02  0.835E-02
  -5.609  0.831E-02  0.831E-02
  -5.599  0.828E-02  0.828E-02
  -5.589  0.824E-02  0.824E-02
  -5.579  0.821E-02  0.821E-02
  -5.569  0.817E-02  0.817E-02
  -5.559  0.814E-02  0.814E-02
  -5.549  0.105E-01  0.105E-01
  -5.539  0.168E-01  0.168E-01
  -5.529  0.231E-01  0.231E-01
  -5.519  0.292E-01  0.292E-01
  -5.509  0.352E-01  0.352E-01
  -5.499  0.412E-01  0.412E-01
  -5.489  0.471E-01  0.471E-01
  -5.479  0.529E-01  0.529E-01
  -5.469  0.582E-01  0.582E-01
  -5.459  0.638E-01  0.638E-01
  -5.449  0.507E-01  0.507E-01
  -5.439  0.446E-01  0.446E-01
  -5.429  0.452E-01  0.452E-01
  -5.419  0.457E-01  0.457E-01
  -5.409  0.463E-01  0.463E-01
  -5.399  0.468E-01  0.468E-01
  -5.389  0.473E-01  0.473E-01
  -5.379  0.478E-01  0.478E-01
  -5.369  0.483E-01  0.483E-01
  -5.359  0.488E-01  0.488E-01
  -5.349  0.492E-01  0.492E-01
  -5.339  0.497E-01  0.497E-01
  -5.329  0.501E-01  0.501E-01
  -5.319  0.506E-01  0.506E-01
  -5.309  0.510E-01  0.510E-01
  -5.299  0.514E-01  0.514E-01
  -5.289  0.517E-01  0.517E-01
  -5.279  0.519E-01  0.519E-01
  -5.269  0.532E-01  0.532E-01
  -5.259  0.547E-01  0.547E-01
  -5.249  0.560E-01  0.560E-01
  -5.239  0.574E-01  0.574E-01
  -5.229  0.584E-01  0.584E-01
  -5.219  0.588E-01  0.588E-01
  -5.209  0.592E-01  0.592E-01
  -5.199  0.596E-01  0.596E-01
  -5.189  0.599E-01  0.599E-01
  -5.179  0.602E-01  0.602E-01
  -5.169  0.605E-01  0.605E-01
  -5.159  0.608E-01  0.608E-01
  -5.149  0.610E-01  0.610E-01
  -5.139  0.611E-01  0.611E-01
  -5.129  0.611E-01  0.611E-01
  -5.119  0.612E-01  0.612E-01
  -5.109  0.612E-01  0.612E-01
  -5.099  0.648E-01  0.648E-01
  -5.089  0.724E-01  0.724E-01
  -5.079  0.796E-01  0.796E-01
  -5.069  0.862E-01  0.862E-01
  -5.059  0.923E-01  0.923E-01
  -5.049  0.993E-01  0.993E-01
  -5.039  0.120E+00  0.120E+00
  -5.029  0.113E+00  0.113E+00
  -5.019  0.106E+00  0.106E+00
  -5.009  0.998E-01  0.998E-01
  -4.999  0.935E-01  0.935E-01
  -4.989  0.876E-01  0.876E-01
  -4.979  0.821E-01  0.821E-01
  -4.969  0.771E-01  0.771E-01
  -4.959  0.747E-01  0.747E-01
  -4.949  0.723E-01  0.723E-01
  -4.939  0.701E-01  0.701E-01
  -4.929  0.679E-01  0.679E-01
  -4.919  0.657E-01  0.657E-01
  -4.909  0.609E-01  0.609E-01
  -4.899  0.539E-01  0.539E-01
  -4.889  0.484E-01  0.484E-01
  -4.879  0.474E-01  0.474E-01
  -4.869  0.464E-01  0.464E-01
  -4.859  0.518E-01  0.518E-01
  -4.849  0.498E-01  0.498E-01
  -4.839  0.478E-01  0.478E-01
  -4.829  0.458E-01  0.458E-01
  -4.819  0.438E-01  0.438E-01
  -4.809  0.419E-01  0.419E-01
  -4.799  0.401E-01  0.401E-01
  -4.789  0.382E-01  0.382E-01
  -4.779  0.364E-01  0.364E-01
  -4.769  0.347E-01  0.347E-01
  -4.759  0.329E-01  0.329E-01
  -4.749  0.242E-01  0.242E-01
  -4.739  0.240E-01  0.240E-01
  -4.729  0.239E-01  0.239E-01
  -4.719  0.372E-01  0.372E-01
  -4.709  0.426E-01  0.426E-01
  -4.699  0.479E-01  0.479E-01
  -4.689  0.609E-01  0.609E-01
  -4.679  0.663E-01  0.663E-01
  -4.669  0.717E-01  0.717E-01
  -4.659  0.681E-01  0.681E-01
  -4.649  0.711E-01  0.711E-01
  -4.639  0.722E-01  0.722E-01
  -4.629  0.739E-01  0.739E-01
  -4.619  0.756E-01  0.756E-01
  -4.609  0.825E-01  0.825E-01
  -4.599  0.937E-01  0.937E-01
  -4.589  0.105E+00  0.105E+00
  -4.579  0.117E+00  0.117E+00
  -4.569  0.155E+00  0.155E+00
  -4.559  0.135E+00  0.135E+00
  -4.549  0.165E+00  0.165E+00
  -4.539  0.109E+00  0.109E+00
  -4.529  0.912E-01  0.912E-01
  -4.519  0.764E-01  0.764E-01
  -4.509  0.721E-01  0.721E-01
  -4.499  0.694E-01  0.694E-01
  -4.489  0.666E-01  0.666E-01
  -4.479  0.638E-01  0.638E-01
  -4.469  0.610E-01  0.610E-01
  -4.459  0.581E-01  0.581E-01
  -4.449  0.563E-01  0.563E-01
  -4.439  0.554E-01  0.554E-01
  -4.429  0.546E-01  0.546E-01
  -4.419  0.538E-01  0.538E-01
  -4.409  0.529E-01  0.529E-01
  -4.399  0.521E-01  0.521E-01
  -4.389  0.512E-01  0.512E-01
  -4.379  0.503E-01  0.503E-01
  -4.369  0.495E-01  0.495E-01
  -4.359  0.468E-01  0.468E-01
  -4.349  0.463E-01  0.463E-01
  -4.339  0.458E-01  0.458E-01
  -4.329  0.452E-01  0.452E-01
  -4.319  0.448E-01  0.448E-01
  -4.309  0.446E-01  0.446E-01
  -4.299  0.444E-01  0.444E-01
  -4.289  0.442E-01  0.442E-01
  -4.279  0.439E-01  0.439E-01
  -4.269  0.437E-01  0.437E-01
  -4.259  0.430E-01  0.430E-01
  -4.249  0.426E-01  0.426E-01
  -4.239  0.423E-01  0.423E-01
  -4.229  0.420E-01  0.420E-01
  -4.219  0.416E-01  0.416E-01
  -4.209  0.413E-01  0.413E-01
  -4.199  0.409E-01  0.409E-01
  -4.189  0.406E-01  0.406E-01
  -4.179  0.402E-01  0.402E-01
  -4.169  0.398E-01  0.398E-01
  -4.159  0.395E-01  0.395E-01
  -4.149  0.392E-01  0.392E-01
  -4.139  0.388E-01  0.388E-01
  -4.129  0.385E-01  0.385E-01
  -4.119  0.381E-01  0.381E-01
  -4.109  0.377E-01  0.377E-01
  -4.099  0.374E-01  0.374E-01
  -4.089  0.370E-01  0.370E-01
  -4.079  0.367E-01  0.367E-01
  -4.069  0.364E-01  0.364E-01
  -4.059  0.360E-01  0.360E-01
  -4.049  0.357E-01  0.357E-01
  -4.039  0.356E-01  0.356E-01
  -4.029  0.354E-01  0.354E-01
  -4.019  0.353E-01  0.353E-01
  -4.009  0.346E-01  0.346E-01
  -3.999  0.345E-01  0.345E-01
  -3.989  0.344E-01  0.344E-01
  -3.979  0.343E-01  0.343E-01
  -3.969  0.342E-01  0.342E-01
  -3.959  0.344E-01  0.344E-01
  -3.949  0.343E-01  0.343E-01
  -3.939  0.342E-01  0.342E-01
  -3.929  0.341E-01  0.341E-01
  -3.919  0.340E-01  0.340E-01
  -3.909  0.339E-01  0.339E-01
  -3.899  0.338E-01  0.338E-01
  -3.889  0.338E-01  0.338E-01
  -3.879  0.337E-01  0.337E-01
  -3.869  0.336E-01  0.336E-01
  -3.859  0.335E-01  0.335E-01
  -3.849  0.333E-01  0.333E-01
  -3.839  0.332E-01  0.332E-01
  -3.829  0.331E-01  0.331E-01
  -3.819  0.330E-01  0.330E-01
  -3.809  0.329E-01  0.329E-01
  -3.799  0.328E-01  0.328E-01
  -3.789  0.327E-01  0.327E-01
  -3.779  0.326E-01  0.326E-01
  -3.769  0.325E-01  0.325E-01
  -3.759  0.324E-01  0.324E-01
  -3.749  0.323E-01  0.323E-01
  -3.739  0.321E-01  0.321E-01
  -3.729  0.314E-01  0.314E-01
  -3.719  0.313E-01  0.313E-01
  -3.709  0.313E-01  0.313E-01
  -3.699  0.312E-01  0.312E-01
  -3.689  0.312E-01  0.312E-01
  -3.679  0.311E-01  0.311E-01
  -3.669  0.310E-01  0.310E-01
  -3.659  0.310E-01  0.310E-01
  -3.649  0.310E-01  0.310E-01
  -3.639  0.309E-01  0.309E-01
  -3.629  0.309E-01  0.309E-01
  -3.619  0.309E-01  0.309E-01
  -3.609  0.306E-01  0.306E-01
  -3.599  0.306E-01  0.306E-01
  -3.589  0.306E-01  0.306E-01
  -3.579  0.306E-01  0.306E-01
  -3.569  0.305E-01  0.305E-01
  -3.559  0.305E-01  0.305E-01
  -3.549  0.305E-01  0.305E-01
  -3.539  0.305E-01  0.305E-01
  -3.529  0.304E-01  0.304E-01
  -3.519  0.304E-01  0.304E-01
  -3.509  0.304E-01  0.304E-01
  -3.499  0.304E-01  0.304E-01
  -3.489  0.303E-01  0.303E-01
  -3.479  0.303E-01  0.303E-01
  -3.469  0.302E-01  0.302E-01
  -3.459  0.302E-01  0.302E-01
  -3.449  0.301E-01  0.301E-01
  -3.439  0.301E-01  0.301E-01
  -3.429  0.300E-01  0.300E-01
  -3.419  0.300E-01  0.300E-01
  -3.409  0.299E-01  0.299E-01
  -3.399  0.315E-01  0.315E-01
  -3.389  0.319E-01  0.319E-01
  -3.379  0.322E-01  0.322E-01
  -3.369  0.326E-01  0.326E-01
  -3.359  0.329E-01  0.329E-01
  -3.349  0.333E-01  0.333E-01
  -3.339  0.336E-01  0.336E-01
  -3.329  0.339E-01  0.339E-01
  -3.319  0.340E-01  0.340E-01
  -3.309  0.341E-01  0.341E-01
  -3.299  0.343E-01  0.343E-01
  -3.289  0.345E-01  0.345E-01
  -3.279  0.347E-01  0.347E-01
  -3.269  0.349E-01  0.349E-01
  -3.259  0.351E-01  0.351E-01
  -3.249  0.354E-01  0.354E-01
  -3.239  0.356E-01  0.356E-01
  -3.229  0.358E-01  0.358E-01
  -3.219  0.364E-01  0.364E-01
  -3.209  0.366E-01  0.366E-01
  -3.199  0.368E-01  0.368E-01
  -3.189  0.370E-01  0.370E-01
  -3.179  0.371E-01  0.371E-01
  -3.169  0.372E-01  0.372E-01
  -3.159  0.374E-01  0.374E-01
  -3.149  0.360E-01  0.360E-01
  -3.139  0.342E-01  0.342E-01
  -3.129  0.324E-01  0.324E-01
  -3.119  0.311E-01  0.311E-01
  -3.109  0.306E-01  0.306E-01
  -3.099  0.301E-01  0.301E-01
  -3.089  0.295E-01  0.295E-01
  -3.079  0.290E-01  0.290E-01
  -3.069  0.285E-01  0.285E-01
  -3.059  0.279E-01  0.279E-01
  -3.049  0.274E-01  0.274E-01
  -3.039  0.268E-01  0.268E-01
  -3.029  0.263E-01  0.263E-01
  -3.019  0.259E-01  0.259E-01
  -3.009  0.256E-01  0.256E-01
  -2.999  0.253E-01  0.253E-01
  -2.989  0.250E-01  0.250E-01
  -2.979  0.246E-01  0.246E-01
  -2.969  0.243E-01  0.243E-01
  -2.959  0.240E-01  0.240E-01
  -2.949  0.236E-01  0.236E-01
  -2.939  0.233E-01  0.233E-01
  -2.929  0.229E-01  0.229E-01
  -2.919  0.226E-01  0.226E-01
  -2.909  0.219E-01  0.219E-01
  -2.899  0.216E-01  0.216E-01
  -2.889  0.212E-01  0.212E-01
  -2.879  0.209E-01  0.209E-01
  -2.869  0.206E-01  0.206E-01
  -2.859  0.202E-01  0.202E-01
  -2.849  0.200E-01  0.200E-01
  -2.839  0.199E-01  0.199E-01
  -2.829  0.197E-01  0.197E-01
  -2.819  0.195E-01  0.195E-01
  -2.809  0.194E-01  0.194E-01
  -2.799  0.192E-01  0.192E-01
  -2.789  0.190E-01  0.190E-01
  -2.779  0.189E-01  0.189E-01
  -2.769  0.187E-01  0.187E-01
  -2.759  0.185E-01  0.185E-01
  -2.749  0.184E-01  0.184E-01
  -2.739  0.182E-01  0.182E-01
  -2.729  0.180E-01  0.180E-01
  -2.719  0.178E-01  0.178E-01
  -2.709  0.175E-01  0.175E-01
  -2.699  0.173E-01  0.173E-01
  -2.689  0.170E-01  0.170E-01
  -2.679  0.168E-01  0.168E-01
  -2.669  0.165E-01  0.165E-01
  -2.659  0.163E-01  0.163E-01
  -2.649  0.161E-01  0.161E-01
  -2.639  0.158E-01  0.158E-01
  -2.629  0.156E-01  0.156E-01
  -2.619  0.155E-01  0.155E-01
  -2.609  0.153E-01  0.153E-01
  -2.599  0.151E-01  0.151E-01
  -2.589  0.149E-01  0.149E-01
  -2.579  0.147E-01  0.147E-01
  -2.569  0.145E-01  0.145E-01
  -2.559  0.143E-01  0.143E-01
  -2.549  0.141E-01  0.141E-01
  -2.539  0.140E-01  0.140E-01
  -2.529  0.137E-01  0.137E-01
  -2.519  0.135E-01  0.135E-01
  -2.509  0.133E-01  0.133E-01
  -2.499  0.131E-01  0.131E-01
  -2.489  0.129E-01  0.129E-01
  -2.479  0.127E-01  0.127E-01
  -2.469  0.125E-01  0.125E-01
  -2.459  0.123E-01  0.123E-01
  -2.449  0.121E-01  0.121E-01
  -2.439  0.119E-01  0.119E-01
  -2.429  0.120E-01  0.120E-01
  -2.419  0.118E-01  0.118E-01
  -2.409  0.115E-01  0.115E-01
  -2.399  0.118E-01  0.118E-01
  -2.389  0.117E-01  0.117E-01
  -2.379  0.115E-01  0.115E-01
  -2.369  0.114E-01  0.114E-01
  -2.359  0.112E-01  0.112E-01
  -2.349  0.110E-01  0.110E-01
  -2.339  0.108E-01  0.108E-01
  -2.329  0.106E-01  0.106E-01
  -2.319  0.104E-01  0.104E-01
  -2.309  0.102E-01  0.102E-01
  -2.299  0.999E-02  0.999E-02
  -2.289  0.980E-02  0.980E-02
  -2.279  0.961E-02  0.961E-02
  -2.269  0.943E-02  0.943E-02
  -2.259  0.925E-02  0.925E-02
  -2.249  0.907E-02  0.907E-02
  -2.239  0.889E-02  0.889E-02
  -2.229  0.872E-02  0.872E-02
  -2.219  0.855E-02  0.855E-02
  -2.209  0.839E-02  0.839E-02
  -2.199  0.822E-02  0.822E-02
  -2.189  0.806E-02  0.806E-02
  -2.179  0.791E-02  0.791E-02
  -2.169  0.775E-02  0.775E-02
  -2.159  0.760E-02  0.760E-02
  -2.149  0.745E-02  0.745E-02
  -2.139  0.731E-02  0.731E-02
  -2.129  0.703E-02  0.703E-02
  -2.119  0.684E-02  0.684E-02
  -2.109  0.665E-02  0.665E-02
  -2.099  0.647E-02  0.647E-02
  -2.089  0.629E-02  0.629E-02
  -2.079  0.737E-02  0.737E-02
  -2.069  0.862E-02  0.862E-02
  -2.059  0.958E-02  0.958E-02
  -2.049  0.105E-01  0.105E-01
  -2.039  0.117E-01  0.117E-01
  -2.029  0.120E-01  0.120E-01
  -2.019  0.123E-01  0.123E-01
  -2.009  0.126E-01  0.126E-01
  -1.999  0.129E-01  0.129E-01
  -1.989  0.133E-01  0.133E-01
  -1.979  0.134E-01  0.134E-01
  -1.969  0.136E-01  0.136E-01
  -1.959  0.138E-01  0.138E-01
  -1.949  0.140E-01  0.140E-01
  -1.939  0.142E-01  0.142E-01
  -1.929  0.144E-01  0.144E-01
  -1.919  0.146E-01  0.146E-01
  -1.909  0.148E-01  0.148E-01
  -1.899  0.150E-01  0.150E-01
  -1.889  0.153E-01  0.153E-01
  -1.879  0.155E-01  0.155E-01
  -1.869  0.157E-01  0.157E-01
  -1.859  0.159E-01  0.159E-01
  -1.849  0.161E-01  0.161E-01
  -1.839  0.163E-01  0.163E-01
  -1.829  0.165E-01  0.165E-01
  -1.819  0.167E-01  0.167E-01
  -1.809  0.169E-01  0.169E-01
  -1.799  0.171E-01  0.171E-01
  -1.789  0.164E-01  0.164E-01
  -1.779  0.163E-01  0.163E-01
  -1.769  0.188E-01  0.188E-01
  -1.759  0.180E-01  0.180E-01
  -1.749  0.172E-01  0.172E-01
  -1.739  0.166E-01  0.166E-01
  -1.729  0.162E-01  0.162E-01
  -1.719  0.158E-01  0.158E-01
  -1.709  0.155E-01  0.155E-01
  -1.699  0.152E-01  0.152E-01
  -1.689  0.150E-01  0.150E-01
  -1.679  0.149E-01  0.149E-01
  -1.669  0.149E-01  0.149E-01
  -1.659  0.149E-01  0.149E-01
  -1.649  0.151E-01  0.151E-01
  -1.639  0.153E-01  0.153E-01
  -1.629  0.156E-01  0.156E-01
  -1.619  0.158E-01  0.158E-01
  -1.609  0.161E-01  0.161E-01
  -1.599  0.163E-01  0.163E-01
  -1.589  0.166E-01  0.166E-01
  -1.579  0.169E-01  0.169E-01
  -1.569  0.173E-01  0.173E-01
  -1.559  0.177E-01  0.177E-01
  -1.549  0.181E-01  0.181E-01
  -1.539  0.186E-01  0.186E-01
  -1.529  0.190E-01  0.190E-01
  -1.519  0.195E-01  0.195E-01
  -1.509  0.200E-01  0.200E-01
  -1.499  0.204E-01  0.204E-01
  -1.489  0.209E-01  0.209E-01
  -1.479  0.214E-01  0.214E-01
  -1.469  0.219E-01  0.219E-01
  -1.459  0.225E-01  0.225E-01
  -1.449  0.312E-01  0.312E-01
  -1.439  0.306E-01  0.306E-01
  -1.429  0.300E-01  0.300E-01
  -1.419  0.294E-01  0.294E-01
  -1.409  0.288E-01  0.288E-01
  -1.399  0.282E-01  0.282E-01
  -1.389  0.276E-01  0.276E-01
  -1.379  0.270E-01  0.270E-01
  -1.369  0.264E-01  0.264E-01
  -1.359  0.258E-01  0.258E-01
  -1.349  0.253E-01  0.253E-01
  -1.339  0.247E-01  0.247E-01
  -1.329  0.241E-01  0.241E-01
  -1.319  0.235E-01  0.235E-01
  -1.309  0.229E-01  0.229E-01
  -1.299  0.223E-01  0.223E-01
  -1.289  0.293E-01  0.293E-01
  -1.279  0.484E-01  0.484E-01
  -1.269  0.172E-01  0.172E-01
  -1.259  0.170E-01  0.170E-01
  -1.249  0.168E-01  0.168E-01
  -1.239  0.165E-01  0.165E-01
  -1.229  0.163E-01  0.163E-01
  -1.219  0.161E-01  0.161E-01
  -1.209  0.159E-01  0.159E-01
  -1.199  0.156E-01  0.156E-01
  -1.189  0.154E-01  0.154E-01
  -1.179  0.152E-01  0.152E-01
  -1.169  0.153E-01  0.153E-01
  -1.159  0.158E-01  0.158E-01
  -1.149  0.162E-01  0.162E-01
  -1.139  0.167E-01  0.167E-01
  -1.129  0.171E-01  0.171E-01
  -1.119  0.174E-01  0.174E-01
  -1.109  0.178E-01  0.178E-01
  -1.099  0.182E-01  0.182E-01
  -1.089  0.185E-01  0.185E-01
  -1.079  0.189E-01  0.189E-01
  -1.069  0.193E-01  0.193E-01
  -1.059  0.197E-01  0.197E-01
  -1.049  0.201E-01  0.201E-01
  -1.039  0.204E-01  0.204E-01
  -1.029  0.208E-01  0.208E-01
  -1.019  0.226E-01  0.226E-01
  -1.009  0.328E-01  0.328E-01
  -0.999  0.434E-01  0.434E-01
  -0.989  0.212E-01  0.212E-01
  -0.979  0.214E-01  0.214E-01
  -0.969  0.216E-01  0.216E-01
  -0.959  0.217E-01  0.217E-01
  -0.949  0.219E-01  0.219E-01
  -0.939  0.220E-01  0.220E-01
  -0.929  0.221E-01  0.221E-01
  -0.919  0.263E-01  0.263E-01
  -0.909  0.257E-01  0.257E-01
  -0.899  0.252E-01  0.252E-01
  -0.889  0.247E-01  0.247E-01
  -0.879  0.242E-01  0.242E-01
  -0.869  0.237E-01  0.237E-01
  -0.859  0.232E-01  0.232E-01
  -0.849  0.227E-01  0.227E-01
  -0.839  0.223E-01  0.223E-01
  -0.829  0.218E-01  0.218E-01
  -0.819  0.213E-01  0.213E-01
  -0.809  0.209E-01  0.209E-01
  -0.799  0.204E-01  0.204E-01
  -0.789  0.192E-01  0.192E-01
  -0.779  0.188E-01  0.188E-01
  -0.769  0.185E-01  0.185E-01
  -0.759  0.186E-01  0.186E-01
  -0.749  0.187E-01  0.187E-01
  -0.739  0.188E-01  0.188E-01
  -0.729  0.189E-01  0.189E-01
  -0.719  0.190E-01  0.190E-01
  -0.709  0.190E-01  0.190E-01
  -0.699  0.191E-01  0.191E-01
  -0.689  0.192E-01  0.192E-01
  -0.679  0.196E-01  0.196E-01
  -0.669  0.205E-01  0.205E-01
  -0.659  0.218E-01  0.218E-01
  -0.649  0.229E-01  0.229E-01
  -0.639  0.240E-01  0.240E-01
  -0.629  0.254E-01  0.254E-01
  -0.619  0.267E-01  0.267E-01
  -0.609  0.207E-01  0.207E-01
  -0.599  0.206E-01  0.206E-01
  -0.589  0.206E-01  0.206E-01
  -0.579  0.205E-01  0.205E-01
  -0.569  0.205E-01  0.205E-01
  -0.559  0.204E-01  0.204E-01
  -0.549  0.203E-01  0.203E-01
  -0.539  0.202E-01  0.202E-01
  -0.529  0.202E-01  0.202E-01
  -0.519  0.217E-01  0.217E-01
  -0.509  0.233E-01  0.233E-01
  -0.499  0.250E-01  0.250E-01
  -0.489  0.497E-01  0.497E-01
  -0.479  0.416E-01  0.416E-01
  -0.469  0.243E-01  0.243E-01
  -0.459  0.246E-01  0.246E-01
  -0.449  0.248E-01  0.248E-01
  -0.439  0.251E-01  0.251E-01
  -0.429  0.253E-01  0.253E-01
  -0.419  0.255E-01  0.255E-01
  -0.409  0.256E-01  0.256E-01
  -0.399  0.258E-01  0.258E-01
  -0.389  0.261E-01  0.261E-01
  -0.379  0.264E-01  0.264E-01
  -0.369  0.266E-01  0.266E-01
  -0.359  0.269E-01  0.269E-01
  -0.349  0.270E-01  0.270E-01
  -0.339  0.272E-01  0.272E-01
  -0.329  0.272E-01  0.272E-01
  -0.319  0.272E-01  0.272E-01
  -0.309  0.272E-01  0.272E-01
  -0.299  0.272E-01  0.272E-01
  -0.289  0.272E-01  0.272E-01
  -0.279  0.271E-01  0.271E-01
  -0.269  0.273E-01  0.273E-01
  -0.259  0.276E-01  0.276E-01
  -0.249  0.279E-01  0.279E-01
  -0.239  0.282E-01  0.282E-01
  -0.229  0.284E-01  0.284E-01
  -0.219  0.287E-01  0.287E-01
  -0.209  0.361E-01  0.361E-01
  -0.199  0.357E-01  0.357E-01
  -0.189  0.352E-01  0.352E-01
  -0.179  0.344E-01  0.344E-01
  -0.169  0.303E-01  0.303E-01
  -0.159  0.302E-01  0.302E-01
  -0.149  0.292E-01  0.292E-01
  -0.139  0.290E-01  0.290E-01
  -0.129  0.288E-01  0.288E-01
  -0.119  0.286E-01  0.286E-01
  -0.109  0.284E-01  0.284E-01
  -0.099  0.282E-01  0.282E-01
  -0.089  0.280E-01  0.280E-01
  -0.079  0.278E-01  0.278E-01
  -0.069  0.276E-01  0.276E-01
  -0.059  0.274E-01  0.274E-01
  -0.049  0.272E-01  0.272E-01
  -0.039  0.271E-01  0.271E-01
  -0.029  0.270E-01  0.270E-01
  -0.019  0.270E-01  0.270E-01
  -0.009  0.269E-01  0.269E-01
   0.001  0.269E-01  0.269E-01
   0.011  0.269E-01  0.269E-01
   0.021  0.270E-01  0.270E-01
   0.031  0.270E-01  0.270E-01
   0.041  0.271E-01  0.271E-01
   0.051  0.272E-01  0.272E-01
   0.061  0.273E-01  0.273E-01
   0.071  0.273E-01  0.273E-01
   0.081  0.275E-01  0.275E-01
   0.091  0.278E-01  0.278E-01
   0.101  0.282E-01  0.282E-01
   0.111  0.282E-01  0.282E-01
   0.121  0.331E-01  0.331E-01
   0.131  0.326E-01  0.326E-01
   0.141  0.321E-01  0.321E-01
   0.151  0.300E-01  0.300E-01
   0.161  0.296E-01  0.296E-01
   0.171  0.292E-01  0.292E-01
   0.181  0.286E-01  0.286E-01
   0.191  0.281E-01  0.281E-01
   0.201  0.282E-01  0.282E-01
   0.211  0.283E-01  0.283E-01
   0.221  0.285E-01  0.285E-01
   0.231  0.286E-01  0.286E-01
   0.241  0.289E-01  0.289E-01
   0.251  0.291E-01  0.291E-01
   0.261  0.293E-01  0.293E-01
   0.271  0.295E-01  0.295E-01
   0.281  0.298E-01  0.298E-01
   0.291  0.301E-01  0.301E-01
   0.301  0.304E-01  0.304E-01
   0.311  0.307E-01  0.307E-01
   0.321  0.310E-01  0.310E-01
   0.331  0.315E-01  0.315E-01
   0.341  0.319E-01  0.319E-01
   0.351  0.397E-01  0.397E-01
   0.361  0.458E-01  0.458E-01
   0.371  0.520E-01  0.520E-01
   0.381  0.416E-01  0.416E-01
   0.391  0.424E-01  0.424E-01
   0.401  0.421E-01  0.421E-01
   0.411  0.413E-01  0.413E-01
   0.421  0.405E-01  0.405E-01
   0.431  0.397E-01  0.397E-01
   0.441  0.389E-01  0.389E-01
   0.451  0.382E-01  0.382E-01
   0.461  0.375E-01  0.375E-01
   0.471  0.368E-01  0.368E-01
   0.481  0.364E-01  0.364E-01
   0.491  0.363E-01  0.363E-01
   0.501  0.361E-01  0.361E-01
   0.511  0.360E-01  0.360E-01
   0.521  0.359E-01  0.359E-01
   0.531  0.359E-01  0.359E-01
   0.541  0.364E-01  0.364E-01
   0.551  0.369E-01  0.369E-01
   0.561  0.390E-01  0.390E-01
   0.571  0.418E-01  0.418E-01
   0.581  0.405E-01  0.405E-01
   0.591  0.392E-01  0.392E-01
   0.601  0.379E-01  0.379E-01
   0.611  0.366E-01  0.366E-01
   0.621  0.360E-01  0.360E-01
   0.631  0.368E-01  0.368E-01
   0.641  0.374E-01  0.374E-01
   0.651  0.507E-01  0.507E-01
   0.661  0.382E-01  0.382E-01
   0.671  0.279E-01  0.279E-01
   0.681  0.176E-01  0.176E-01
   0.691  0.158E-01  0.158E-01
   0.701  0.158E-01  0.158E-01
   0.711  0.159E-01  0.159E-01
   0.721  0.159E-01  0.159E-01
   0.731  0.160E-01  0.160E-01
   0.741  0.161E-01  0.161E-01
   0.751  0.161E-01  0.161E-01
   0.761  0.161E-01  0.161E-01
   0.771  0.162E-01  0.162E-01
   0.781  0.162E-01  0.162E-01
   0.791  0.163E-01  0.163E-01
   0.801  0.163E-01  0.163E-01
   0.811  0.163E-01  0.163E-01
   0.821  0.164E-01  0.164E-01
   0.831  0.164E-01  0.164E-01
   0.841  0.164E-01  0.164E-01
   0.851  0.165E-01  0.165E-01
   0.861  0.165E-01  0.165E-01
   0.871  0.165E-01  0.165E-01
   0.881  0.166E-01  0.166E-01
   0.891  0.166E-01  0.166E-01
   0.901  0.166E-01  0.166E-01
   0.911  0.168E-01  0.168E-01
   0.921  0.169E-01  0.169E-01
   0.931  0.170E-01  0.170E-01
   0.941  0.170E-01  0.170E-01
   0.951  0.171E-01  0.171E-01
   0.961  0.172E-01  0.172E-01
   0.971  0.172E-01  0.172E-01
   0.981  0.173E-01  0.173E-01
   0.991  0.173E-01  0.173E-01
   1.001  0.174E-01  0.174E-01
   1.011  0.175E-01  0.175E-01
   1.021  0.175E-01  0.175E-01
   1.031  0.176E-01  0.176E-01
   1.041  0.176E-01  0.176E-01
   1.051  0.177E-01  0.177E-01
   1.061  0.177E-01  0.177E-01
   1.071  0.177E-01  0.177E-01
   1.081  0.177E-01  0.177E-01
   1.091  0.177E-01  0.177E-01
   1.101  0.177E-01  0.177E-01
   1.111  0.177E-01  0.177E-01
   1.121  0.177E-01  0.177E-01
   1.131  0.177E-01  0.177E-01
   1.141  0.178E-01  0.178E-01
   1.151  0.178E-01  0.178E-01
   1.161  0.178E-01  0.178E-01
   1.171  0.178E-01  0.178E-01
   1.181  0.178E-01  0.178E-01
   1.191  0.178E-01  0.178E-01
   1.201  0.178E-01  0.178E-01
   1.211  0.178E-01  0.178E-01
   1.221  0.178E-01  0.178E-01
   1.231  0.178E-01  0.178E-01
   1.241  0.178E-01  0.178E-01
   1.251  0.178E-01  0.178E-01
   1.261  0.184E-01  0.184E-01
   1.271  0.184E-01  0.184E-01
   1.281  0.185E-01  0.185E-01
   1.291  0.186E-01  0.186E-01
   1.301  0.187E-01  0.187E-01
   1.311  0.188E-01  0.188E-01
   1.321  0.189E-01  0.189E-01
   1.331  0.190E-01  0.190E-01
   1.341  0.191E-01  0.191E-01
   1.351  0.192E-01  0.192E-01
   1.361  0.192E-01  0.192E-01
   1.371  0.193E-01  0.193E-01
   1.381  0.194E-01  0.194E-01
   1.391  0.194E-01  0.194E-01
   1.401  0.195E-01  0.195E-01
   1.411  0.196E-01  0.196E-01
   1.421  0.197E-01  0.197E-01
   1.431  0.198E-01  0.198E-01
   1.441  0.199E-01  0.199E-01
   1.451  0.200E-01  0.200E-01
   1.461  0.201E-01  0.201E-01
   1.471  0.201E-01  0.201E-01
   1.481  0.202E-01  0.202E-01
   1.491  0.203E-01  0.203E-01
   1.501  0.202E-01  0.202E-01
   1.511  0.202E-01  0.202E-01
   1.521  0.202E-01  0.202E-01
   1.531  0.202E-01  0.202E-01
   1.541  0.203E-01  0.203E-01
   1.551  0.203E-01  0.203E-01
   1.561  0.204E-01  0.204E-01
   1.571  0.205E-01  0.205E-01
   1.581  0.205E-01  0.205E-01
   1.591  0.205E-01  0.205E-01
   1.601  0.206E-01  0.206E-01
   1.611  0.206E-01  0.206E-01
   1.621  0.207E-01  0.207E-01
   1.631  0.207E-01  0.207E-01
   1.641  0.207E-01  0.207E-01
   1.651  0.206E-01  0.206E-01
   1.661  0.207E-01  0.207E-01
   1.671  0.210E-01  0.210E-01
   1.681  0.212E-01  0.212E-01
   1.691  0.214E-01  0.214E-01
   1.701  0.215E-01  0.215E-01
   1.711  0.216E-01  0.216E-01
   1.721  0.217E-01  0.217E-01
   1.731  0.218E-01  0.218E-01
   1.741  0.219E-01  0.219E-01
   1.751  0.222E-01  0.222E-01
   1.761  0.226E-01  0.226E-01
   1.771  0.229E-01  0.229E-01
   1.781  0.237E-01  0.237E-01
   1.791  0.239E-01  0.239E-01
   1.801  0.241E-01  0.241E-01
   1.811  0.242E-01  0.242E-01
   1.821  0.244E-01  0.244E-01
   1.831  0.247E-01  0.247E-01
   1.841  0.261E-01  0.261E-01
   1.851  0.267E-01  0.267E-01
   1.861  0.289E-01  0.289E-01
   1.871  0.308E-01  0.308E-01
   1.881  0.322E-01  0.322E-01
   1.891  0.604E-01  0.604E-01
   1.901  0.302E-01  0.302E-01
   1.911  0.540E-01  0.540E-01
   1.921  0.216E-01  0.216E-01
   1.931  0.184E-01  0.184E-01
   1.941  0.176E-01  0.176E-01
   1.951  0.168E-01  0.168E-01
   1.961  0.160E-01  0.160E-01
   1.971  0.151E-01  0.151E-01
   1.981  0.142E-01  0.142E-01
   1.991  0.132E-01  0.132E-01
   2.001  0.122E-01  0.122E-01
   2.011  0.147E-01  0.147E-01
   2.021  0.183E-01  0.183E-01
   2.031  0.226E-01  0.226E-01
   2.041  0.623E-02  0.623E-02
   2.051  0.624E-02  0.624E-02
   2.061  0.625E-02  0.625E-02
   2.071  0.625E-02  0.625E-02
   2.081  0.626E-02  0.626E-02
   2.091  0.627E-02  0.627E-02
   2.101  0.628E-02  0.628E-02
   2.111  0.629E-02  0.629E-02
   2.121  0.630E-02  0.630E-02
   2.131  0.631E-02  0.631E-02
   2.141  0.632E-02  0.632E-02
   2.151  0.633E-02  0.633E-02
   2.161  0.634E-02  0.634E-02
   2.171  0.635E-02  0.635E-02
   2.181  0.636E-02  0.636E-02
   2.191  0.637E-02  0.637E-02
   2.201  0.638E-02  0.638E-02
   2.211  0.639E-02  0.639E-02
   2.221  0.640E-02  0.640E-02
   2.231  0.641E-02  0.641E-02
   2.241  0.643E-02  0.643E-02
   2.251  0.644E-02  0.644E-02
   2.261  0.645E-02  0.645E-02
   2.271  0.646E-02  0.646E-02
   2.281  0.648E-02  0.648E-02
   2.291  0.649E-02  0.649E-02
   2.301  0.650E-02  0.650E-02
   2.311  0.652E-02  0.652E-02
   2.321  0.653E-02  0.653E-02
   2.331  0.722E-02  0.722E-02
   2.341  0.794E-02  0.794E-02
   2.351  0.861E-02  0.861E-02
   2.361  0.872E-02  0.872E-02
   2.371  0.884E-02  0.884E-02
   2.381  0.895E-02  0.895E-02
   2.391  0.907E-02  0.907E-02
   2.401  0.919E-02  0.919E-02
   2.411  0.931E-02  0.931E-02
   2.421  0.943E-02  0.943E-02
   2.431  0.955E-02  0.955E-02
   2.441  0.968E-02  0.968E-02
   2.451  0.981E-02  0.981E-02
   2.461  0.993E-02  0.993E-02
   2.471  0.101E-01  0.101E-01
   2.481  0.102E-01  0.102E-01
   2.491  0.103E-01  0.103E-01
   2.501  0.105E-01  0.105E-01
   2.511  0.106E-01  0.106E-01
   2.521  0.107E-01  0.107E-01
   2.531  0.109E-01  0.109E-01
   2.541  0.110E-01  0.110E-01
   2.551  0.112E-01  0.112E-01
   2.561  0.113E-01  0.113E-01
   2.571  0.115E-01  0.115E-01
   2.581  0.116E-01  0.116E-01
   2.591  0.117E-01  0.117E-01
   2.601  0.118E-01  0.118E-01
   2.611  0.119E-01  0.119E-01
   2.621  0.120E-01  0.120E-01
   2.631  0.121E-01  0.121E-01
   2.641  0.123E-01  0.123E-01
   2.651  0.124E-01  0.124E-01
   2.661  0.125E-01  0.125E-01
   2.671  0.126E-01  0.126E-01
   2.681  0.127E-01  0.127E-01
   2.691  0.129E-01  0.129E-01
   2.701  0.130E-01  0.130E-01
   2.711  0.131E-01  0.131E-01
   2.721  0.132E-01  0.132E-01
   2.731  0.211E-01  0.211E-01
   2.741  0.220E-01  0.220E-01
   2.751  0.229E-01  0.229E-01
   2.761  0.238E-01  0.238E-01
   2.771  0.247E-01  0.247E-01
   2.781  0.257E-01  0.257E-01
   2.791  0.266E-01  0.266E-01
   2.801  0.276E-01  0.276E-01
   2.811  0.286E-01  0.286E-01
   2.821  0.296E-01  0.296E-01
   2.831  0.306E-01  0.306E-01
   2.841  0.316E-01  0.316E-01
   2.851  0.327E-01  0.327E-01
   2.861  0.337E-01  0.337E-01
   2.871  0.348E-01  0.348E-01
   2.881  0.358E-01  0.358E-01
   2.891  0.366E-01  0.366E-01
   2.901  0.124E+00  0.124E+00
   2.911  0.238E+00  0.238E+00
   2.921  0.205E+00  0.205E+00
   2.931  0.245E+00  0.245E+00
   2.941  0.405E+00  0.405E+00
   2.951  0.126E+00  0.126E+00
   2.961  0.103E+00  0.103E+00
   2.971  0.796E-01  0.796E-01
   2.981  0.529E-01  0.529E-01
   2.991  0.483E-01  0.483E-01
   3.001  0.439E-01  0.439E-01
   3.011  0.397E-01  0.397E-01
   3.021  0.380E-01  0.380E-01
   3.031  0.371E-01  0.371E-01
   3.041  0.362E-01  0.362E-01
   3.051  0.353E-01  0.353E-01
   3.061  0.343E-01  0.343E-01
   3.071  0.334E-01  0.334E-01
   3.081  0.324E-01  0.324E-01
   3.091  0.315E-01  0.315E-01
   3.101  0.305E-01  0.305E-01
   3.111  0.295E-01  0.295E-01
   3.121  0.285E-01  0.285E-01
   3.131  0.275E-01  0.275E-01
   3.141  0.265E-01  0.265E-01
   3.151  0.255E-01  0.255E-01
   3.161  0.245E-01  0.245E-01
   3.171  0.244E-01  0.244E-01
   3.181  0.246E-01  0.246E-01
   3.191  0.248E-01  0.248E-01
   3.201  0.249E-01  0.249E-01
   3.211  0.250E-01  0.250E-01
   3.221  0.251E-01  0.251E-01
   3.231  0.252E-01  0.252E-01
   3.241  0.252E-01  0.252E-01
   3.251  0.253E-01  0.253E-01
   3.261  0.253E-01  0.253E-01
   3.271  0.253E-01  0.253E-01
   3.281  0.252E-01  0.252E-01
   3.291  0.205E-01  0.205E-01
   3.301  0.194E-01  0.194E-01
   3.311  0.183E-01  0.183E-01
   3.321  0.172E-01  0.172E-01
   3.331  0.161E-01  0.161E-01
   3.341  0.150E-01  0.150E-01
   3.351  0.139E-01  0.139E-01
   3.361  0.128E-01  0.128E-01
   3.371  0.116E-01  0.116E-01
   3.381  0.105E-01  0.105E-01
   3.391  0.929E-02  0.929E-02
   3.401  0.812E-02  0.812E-02
   3.411  0.694E-02  0.694E-02
   3.421  0.576E-02  0.576E-02
   3.431  0.456E-02  0.456E-02
   3.441  0.335E-02  0.335E-02
   3.451  0.214E-02  0.214E-02
   3.461  0.917E-03  0.917E-03
   3.471  0.000E+00  0.000E+00
